timestamps,TP9,AF7,AF8,TP10,Right AUX
1607281239.904,37.109,31.738,28.320,34.180,32.715
1607281239.908,30.273,34.180,30.762,29.785,26.367
1607281239.912,11.230,34.180,32.227,4.883,2.930
1607281239.916,15.625,31.250,31.738,7.812,40.527
1607281239.920,36.621,31.738,34.668,35.156,55.176
1607281239.924,41.016,34.180,38.574,41.016,24.902
1607281239.928,23.926,32.227,36.621,16.113,20.996
1607281239.932,19.531,32.227,35.156,5.859,54.199
1607281239.935,33.203,27.832,36.621,24.414,37.598
1607281239.939,44.922,28.809,35.156,36.133,13.672
1607281239.943,28.320,33.203,35.156,15.625,78.613
1607281239.947,24.902,34.668,34.668,3.906,68.848
1607281239.951,34.668,36.133,32.227,17.090,-19.531
1607281239.955,36.133,35.645,32.715,37.598,11.719
1607281239.959,21.973,36.133,32.715,18.555,57.129
1607281239.963,6.348,31.250,30.273,-6.836,32.227
1607281239.967,17.578,29.297,32.227,5.859,6.836
1607281239.971,34.668,31.250,34.180,29.785,-6.836
1607281239.975,33.691,32.227,33.203,24.414,-28.809
1607281239.978,22.461,33.691,32.227,3.418,-41.016
1607281239.982,19.043,34.180,27.832,2.441,14.160
1607281239.986,36.133,36.133,29.785,26.855,34.668
1607281239.990,41.992,34.668,32.227,34.668,27.344
1607281239.994,18.066,33.203,29.297,5.859,64.941
1607281239.998,20.020,33.203,28.809,1.953,58.594
1607281240.002,38.574,30.762,28.320,26.855,0.488
1607281240.006,38.574,26.855,30.762,42.969,26.367
1607281240.010,21.484,27.832,31.250,19.043,55.664
1607281240.014,11.230,28.809,29.297,2.930,21.484
1607281240.017,23.438,27.832,28.809,17.578,10.254
1607281240.021,38.086,26.367,26.855,34.668,7.324
1607281240.025,27.832,28.320,26.367,19.043,20.996
1607281240.029,13.672,33.203,29.297,-4.883,9.766
1607281240.033,20.020,32.227,25.879,2.441,24.414
1607281240.037,38.086,28.320,24.902,30.273,77.637
1607281240.041,35.156,25.879,27.344,31.250,68.848
1607281240.045,16.113,24.414,26.367,4.883,2.441
1607281240.049,18.555,25.879,25.391,-0.977,-19.043
1607281240.053,37.109,27.832,28.320,28.809,34.180
1607281240.057,41.504,32.227,29.785,36.133,32.227
1607281240.060,24.414,30.762,30.762,12.695,-12.207
1607281240.064,19.043,28.320,30.273,0.488,8.789
1607281240.068,36.621,29.297,29.297,20.996,14.160
1607281240.072,52.734,30.273,29.785,44.922,-27.832
1607281240.076,37.109,28.809,30.273,27.344,-0.977
1607281240.080,20.996,30.762,29.297,9.766,33.691
1607281240.084,28.809,35.156,28.320,14.648,37.598
1607281240.088,37.109,32.715,28.320,34.668,71.289
1607281240.092,29.297,32.715,26.855,28.320,43.945
1607281240.096,20.020,33.203,29.297,5.859,-9.277
1607281240.100,27.344,32.227,30.273,10.254,42.969
1607281240.103,37.109,31.738,27.344,31.250,70.312
1607281240.107,30.273,33.203,30.273,36.133,68.359
1607281240.111,16.602,34.668,33.203,10.742,38.574
1607281240.115,17.578,30.762,30.273,6.348,4.395
1607281240.119,37.109,30.762,28.809,32.227,27.832
1607281240.123,42.480,34.668,26.855,34.180,53.711
1607281240.127,22.461,31.738,26.855,6.348,48.828
1607281240.131,11.719,26.855,28.809,-2.441,-12.695
1607281240.135,22.949,26.855,29.785,17.090,48.828
1607281240.139,38.574,30.273,31.250,32.227,83.984
1607281240.142,22.949,30.273,31.250,15.137,63.965
1607281240.146,15.137,29.297,28.809,2.930,68.848
1607281240.150,27.344,27.832,29.297,14.160,30.273
1607281240.154,41.504,28.809,29.297,36.621,29.785
1607281240.158,36.621,30.273,30.273,34.180,29.785
1607281240.162,17.578,28.320,31.738,14.648,2.441
1607281240.166,22.461,27.344,29.785,11.230,14.648
1607281240.170,38.574,24.902,29.297,30.762,12.207
1607281240.174,37.598,26.855,32.227,37.598,-1.465
1607281240.178,14.648,28.809,33.203,13.184,60.547
1607281240.182,3.418,27.344,32.715,5.371,8.789
1607281240.185,22.949,26.855,31.738,26.367,-34.668
1607281240.189,33.203,25.879,32.715,41.016,-12.695
1607281240.193,16.113,27.832,34.180,20.508,82.031
1607281240.197,8.789,29.785,33.691,-0.488,106.934
1607281240.201,21.973,28.320,32.715,14.648,54.688
1607281240.205,35.645,31.738,33.203,40.039,65.430
1607281240.209,20.996,32.715,33.691,25.879,7.324
1607281240.213,2.930,30.273,34.668,1.465,-28.809
1607281240.217,17.578,30.273,33.203,9.277,-19.531
1607281240.221,36.621,31.738,28.320,30.762,8.301
1607281240.225,32.227,30.762,30.273,27.344,73.242
1607281240.228,17.578,27.832,33.691,3.906,50.781
1607281240.232,21.484,24.902,33.203,7.812,34.668
1607281240.236,40.039,26.855,31.738,34.180,32.715
1607281240.240,39.062,26.855,30.273,37.598,34.180
1607281240.244,25.879,31.250,30.273,11.230,79.102
1607281240.248,19.531,30.762,31.250,8.789,62.012
1607281240.252,39.551,29.785,31.250,31.250,32.715
1607281240.256,51.270,33.691,31.250,42.480,19.043
1607281240.260,23.926,36.133,27.832,21.973,49.805
1607281240.264,20.020,37.109,25.391,12.207,24.414
1607281240.267,38.086,35.156,28.320,35.156,2.441
1607281240.271,38.086,31.738,31.738,37.109,44.434
1607281240.275,14.160,32.227,37.598,12.207,11.230
1607281240.279,0.000,32.227,39.551,-6.836,-31.250
1607281240.283,9.277,27.344,34.668,2.930,20.996
1607281240.287,32.715,26.855,33.203,32.227,-17.090
1607281240.291,33.203,27.832,33.691,34.180,-23.926
1607281240.295,9.277,27.344,33.691,6.836,47.852
1607281240.299,17.090,27.344,31.738,4.395,39.062
1607281240.303,41.992,27.344,32.715,32.715,39.551
1607281240.307,42.969,25.879,35.645,41.992,58.594
1607281240.310,23.926,24.414,35.156,18.066,50.293
1607281240.314,16.602,25.391,34.668,8.789,26.367
1607281240.318,35.645,29.297,33.203,32.227,-8.301
1607281240.322,53.711,30.273,34.180,50.781,12.695
1607281240.326,36.621,28.809,34.668,25.879,32.715
1607281240.330,17.090,31.738,32.715,1.465,41.504
1607281240.334,26.855,31.250,33.691,16.113,21.973
1607281240.338,41.992,27.832,32.227,40.039,4.883
1607281240.342,26.367,29.297,30.273,23.926,33.691
1607281240.346,12.695,30.762,31.250,-1.465,53.223
1607281240.350,20.020,29.297,29.785,3.906,30.273
1607281240.353,39.551,26.367,29.785,34.180,40.039
1607281240.357,36.621,27.344,31.250,37.109,30.273
1607281240.361,15.137,30.762,30.762,9.277,13.672
1607281240.365,19.531,29.785,28.320,2.930,67.383
1607281240.369,35.645,28.809,26.367,25.391,60.547
1607281240.373,41.016,31.738,29.297,36.621,-3.906
1607281240.377,28.320,33.203,29.297,13.672,13.184
1607281240.381,25.879,33.203,28.320,4.883,47.363
1607281240.385,36.621,26.855,31.250,27.344,63.477
1607281240.389,46.875,24.414,28.320,38.574,72.266
1607281240.392,37.109,29.297,27.344,16.602,42.969
1607281240.396,17.090,31.738,27.344,-0.488,23.926
1607281240.400,21.484,32.715,28.809,13.672,-2.441
1607281240.404,38.574,24.414,31.250,39.551,44.922
1607281240.408,32.715,23.438,29.297,28.809,60.059
1607281240.412,14.648,32.715,29.785,5.371,-21.484
1607281240.416,18.066,34.180,31.250,12.207,26.367
1607281240.420,41.504,31.738,30.762,41.016,74.219
1607281240.424,45.410,35.156,30.273,44.434,8.301
1607281240.428,29.785,37.598,30.762,20.996,10.742
1607281240.432,26.367,35.645,30.273,12.207,-0.977
1607281240.435,42.480,33.203,28.809,29.297,8.789
1607281240.439,53.223,31.738,31.250,43.945,1.953
1607281240.443,34.668,30.273,34.180,23.926,-18.555
1607281240.447,17.578,30.762,33.203,4.883,11.230
1607281240.451,24.902,29.785,29.297,17.090,24.414
1607281240.455,41.992,29.785,30.762,39.062,44.434
1607281240.459,28.809,29.785,32.715,22.461,48.828
1607281240.463,8.789,28.809,30.273,-0.977,36.621
1607281240.467,15.137,23.926,29.297,9.766,-1.953
1607281240.471,31.250,23.926,26.855,34.668,57.617
1607281240.475,25.879,32.715,25.879,29.785,46.387
1607281240.478,10.254,34.180,26.367,0.488,47.363
1607281240.482,16.602,32.227,27.344,1.953,66.895
1607281240.486,40.527,29.785,30.762,33.691,16.602
1607281240.490,39.551,31.738,31.250,37.598,56.641
1607281240.494,21.484,37.109,28.809,7.812,18.066
1607281240.498,16.113,34.180,24.902,-1.465,-18.555
1607281240.502,29.785,31.250,24.902,20.020,70.801
1607281240.506,38.574,29.297,26.367,36.621,99.121
1607281240.510,22.461,32.227,28.809,16.602,36.133
1607281240.514,15.137,35.645,29.785,-3.418,26.367
1607281240.517,30.273,34.180,28.320,17.090,32.715
1607281240.521,44.922,36.621,29.785,46.875,103.516
1607281240.525,28.320,35.156,28.320,26.367,101.074
1607281240.529,12.695,35.156,26.367,-4.395,8.789
1607281240.533,22.949,34.668,25.391,1.465,21.973
1607281240.537,41.504,30.273,26.367,28.320,11.719
1607281240.541,35.156,29.785,29.785,29.785,41.992
1607281240.545,8.789,27.832,30.762,6.348,73.730
1607281240.549,10.742,29.297,29.297,6.348,70.312
1607281240.553,31.250,29.297,29.297,26.855,19.043
1607281240.557,29.297,26.367,26.855,31.738,-20.020
1607281240.560,13.184,28.320,24.902,15.137,-1.465
1607281240.564,14.648,28.809,25.879,7.812,51.758
1607281240.568,34.668,31.250,30.273,25.879,83.008
1607281240.572,43.457,31.250,32.227,39.551,94.727
1607281240.576,30.273,27.832,32.715,17.090,81.055
1607281240.580,22.461,32.227,34.668,2.441,12.695
1607281240.584,27.832,37.109,29.785,20.508,39.551
1607281240.588,43.945,36.133,29.785,39.551,74.219
1607281240.592,33.203,35.645,31.738,28.320,31.250
1607281240.596,17.090,33.203,28.809,5.371,7.812
1607281240.600,21.973,31.250,26.367,9.766,18.066
1607281240.603,41.016,31.738,26.855,36.621,2.930
1607281240.607,38.574,34.180,29.785,38.574,50.781
1607281240.611,14.648,34.180,30.762,17.090,40.039
1607281240.615,17.578,33.691,27.344,10.742,-9.277
1607281240.619,36.621,30.762,30.273,30.762,9.277
1607281240.623,40.039,27.832,33.691,43.457,19.531
1607281240.627,23.438,31.250,34.668,23.926,25.879
1607281240.631,14.160,30.762,35.645,8.301,17.578
1607281240.635,34.180,32.227,33.691,23.926,10.742
1607281240.639,46.387,35.156,30.273,42.480,-9.277
1607281240.642,30.762,34.180,32.227,24.902,-8.789
1607281240.646,22.461,33.203,35.645,8.301,31.250
1607281240.650,31.250,36.133,35.645,17.090,34.668
1607281240.654,43.457,34.668,34.668,39.062,37.109
1607281240.658,30.273,31.738,33.691,29.785,36.621
1607281240.662,15.137,30.273,33.691,6.836,-34.180
1607281240.666,21.484,31.250,30.762,7.812,-18.555
1607281240.670,34.668,32.715,31.250,29.785,103.027
1607281240.674,31.738,29.785,34.668,32.227,109.375
1607281240.678,14.160,30.273,34.668,2.930,8.301
1607281240.682,13.672,32.227,34.180,-4.883,-11.719
1607281240.685,32.227,29.785,34.180,13.672,81.055
1607281240.689,39.551,26.367,35.645,28.320,32.227
1607281240.693,23.438,27.832,32.715,15.625,18.066
1607281240.697,14.160,27.832,30.273,-0.977,57.617
1607281240.701,23.926,30.273,30.273,11.719,10.742
1607281240.705,36.621,33.203,29.297,32.715,55.176
1607281240.709,25.391,32.227,31.250,20.508,51.270
1607281240.713,6.348,31.738,30.762,-0.488,8.789
1607281240.717,23.438,30.273,31.250,11.719,-10.254
1607281240.721,45.898,28.809,32.715,43.457,-15.137
1607281240.725,35.156,33.203,35.645,36.621,25.391
1607281240.728,20.996,33.691,35.645,13.672,7.324
1607281240.732,19.531,29.785,34.668,16.602,-29.297
1607281240.736,38.574,33.203,33.203,42.480,-45.898
1607281240.740,45.898,37.109,30.762,41.504,-67.871
1607281240.744,24.902,34.668,32.227,12.695,-64.941
1607281240.748,26.855,31.738,31.738,10.742,-23.438
1607281240.752,44.922,31.738,31.250,26.855,-23.926
1607281240.756,47.363,31.250,30.273,35.156,-5.371
1607281240.760,24.414,30.762,28.320,14.648,32.227
1607281240.764,10.254,29.785,27.344,-1.953,37.598
1607281240.767,24.902,26.855,29.785,16.113,17.578
1607281240.771,42.969,29.297,30.273,39.551,17.578
1607281240.775,33.203,32.227,28.809,18.555,-1.465
1607281240.779,20.020,28.809,29.297,-4.883,15.137
1607281240.783,27.832,27.832,28.320,9.277,38.574
1607281240.787,48.340,30.762,28.809,33.691,15.625
1607281240.791,45.898,35.156,32.227,30.273,29.297
1607281240.795,21.484,33.691,32.715,2.441,66.406
1607281240.799,21.973,33.691,30.762,-0.488,21.484
1607281240.803,39.551,35.156,30.273,25.391,-13.672
1607281240.807,45.898,31.250,29.785,31.738,19.531
1607281240.810,33.203,35.156,32.715,13.184,57.617
1607281240.814,24.414,38.574,33.691,13.184,57.129
1607281240.818,39.062,32.715,31.250,30.273,6.836
1607281240.822,54.688,31.250,31.738,42.969,17.578
1607281240.826,41.016,34.668,33.203,27.344,55.664
1607281240.830,26.367,32.715,32.715,7.324,-13.184
1607281240.834,35.156,33.203,32.715,18.066,-8.789
1607281240.838,54.688,35.645,34.668,42.480,28.809
1607281240.842,42.480,37.109,33.203,30.273,-5.371
1607281240.846,21.973,37.109,34.668,6.348,75.195
1607281240.850,32.227,35.156,31.738,15.625,74.707
1607281240.853,48.828,32.227,28.320,38.086,65.918
1607281240.857,43.457,30.273,30.273,34.180,58.105
1607281240.861,26.855,30.762,29.297,9.766,47.363
1607281240.865,21.484,26.855,28.320,6.836,73.242
1607281240.869,37.109,25.879,30.762,28.320,58.594
1607281240.873,42.480,32.227,32.715,36.133,7.812
1607281240.877,20.508,36.621,33.691,12.207,17.578
1607281240.881,14.160,31.250,31.250,-0.977,44.922
1607281240.885,26.367,29.785,30.273,20.020,70.801
1607281240.889,38.574,32.715,32.227,42.969,52.246
1607281240.892,24.902,27.344,33.203,20.508,41.504
1607281240.896,6.348,28.320,33.691,-7.324,31.250
1607281240.900,19.531,29.297,29.297,4.883,-15.625
1607281240.904,40.039,26.855,27.832,33.203,24.902
1607281240.908,31.250,30.762,31.250,24.902,41.992
1607281240.912,9.766,31.738,31.738,0.977,28.320
1607281240.916,13.672,32.715,29.297,3.418,35.156
1607281240.920,33.691,33.203,25.879,28.320,39.062
1607281240.924,32.227,33.203,26.855,29.785,19.531
1607281240.928,16.113,33.203,31.250,13.184,-39.062
1607281240.932,13.672,32.227,31.738,7.812,-27.832
1607281240.935,30.762,33.691,29.785,26.855,4.883
1607281240.939,39.551,31.738,29.785,41.504,8.789
1607281240.943,25.879,31.250,32.227,19.043,32.715
1607281240.947,18.066,30.273,30.762,6.348,60.547
1607281240.951,31.738,29.297,29.785,27.832,25.391
1607281240.955,46.875,29.297,32.715,47.363,-6.836
1607281240.959,29.785,25.391,35.156,28.320,-19.043
1607281240.963,12.207,26.367,33.691,4.883,-1.465
1607281240.967,23.926,30.762,29.297,10.742,17.090
1607281240.971,39.551,28.320,28.320,36.621,35.156
1607281240.975,32.227,26.367,30.762,29.785,18.066
1607281240.978,19.043,31.250,28.809,5.371,-8.301
1607281240.982,18.555,32.715,27.344,6.836,28.320
1607281240.986,40.527,27.832,28.320,31.738,47.363
1607281240.990,40.039,30.273,29.297,34.180,57.129
1607281240.994,13.672,35.645,31.250,10.254,14.160
1607281240.998,14.160,35.645,31.250,0.977,5.371
1607281241.002,35.645,31.250,31.250,19.531,58.105
1607281241.006,42.969,27.344,30.273,38.574,17.090
1607281241.010,21.973,31.250,30.762,13.184,25.879
1607281241.014,17.578,33.691,33.203,-2.930,43.457
1607281241.017,38.086,30.273,34.180,17.578,2.930
1607281241.021,51.270,31.250,33.203,39.062,-16.602
1607281241.025,32.227,36.621,31.250,20.508,-27.832
1607281241.029,15.137,36.133,30.762,1.953,-6.348
1607281241.033,22.949,32.715,30.273,17.578,25.391
1607281241.037,43.945,29.785,28.809,38.086,31.738
1607281241.041,43.457,32.715,28.809,30.273,20.996
1607281241.045,28.320,38.574,28.320,9.277,28.809
1607281241.049,25.879,35.645,29.785,9.766,31.250
1607281241.053,41.992,34.180,28.809,33.691,26.855
1607281241.057,46.387,35.156,29.297,39.062,24.414
1607281241.060,26.855,33.691,32.227,17.090,67.383
1607281241.064,21.973,31.738,31.250,9.277,109.375
1607281241.068,35.645,26.855,30.762,30.762,93.262
1607281241.072,43.457,21.973,31.738,48.828,19.531
1607281241.076,27.832,24.902,35.156,29.297,27.832
1607281241.080,16.113,30.273,35.156,12.207,68.848
1607281241.084,26.855,31.738,32.227,19.531,53.223
1607281241.088,43.457,27.832,30.762,35.645,57.617
1607281241.092,34.180,24.902,31.738,26.855,92.285
1607281241.096,18.066,27.832,30.762,6.836,80.078
1607281241.100,25.391,29.297,29.297,13.184,28.320
1607281241.103,43.945,28.809,31.738,41.016,-38.574
1607281241.107,35.645,28.809,30.762,36.133,-46.875
1607281241.111,15.625,29.785,31.738,7.324,25.879
1607281241.115,16.602,27.344,31.250,2.930,14.648
1607281241.119,34.180,27.344,26.367,26.855,-20.508
1607281241.123,39.062,29.785,27.832,37.109,-13.672
1607281241.127,20.020,28.809,29.297,8.789,66.406
1607281241.131,14.648,26.367,27.344,-2.930,137.695
1607281241.135,29.297,25.879,23.926,16.602,37.598
1607281241.139,39.551,30.762,25.879,37.598,-30.273
1607281241.142,21.973,32.227,31.250,23.926,10.742
1607281241.146,9.766,32.227,30.762,5.371,-9.766
1607281241.150,23.926,28.809,28.320,17.090,-16.602
1607281241.154,44.922,28.320,26.855,37.598,12.695
1607281241.158,34.668,34.668,30.273,27.832,42.969
1607281241.162,16.602,31.738,31.738,8.789,95.215
1607281241.166,27.344,27.832,29.785,14.160,59.570
1607281241.170,43.457,31.250,27.832,36.133,11.230
1607281241.174,36.133,31.738,28.809,32.227,42.969
1607281241.178,19.531,30.762,31.738,8.789,21.484
1607281241.182,16.602,28.809,31.250,8.301,0.488
1607281241.185,36.621,29.297,30.762,31.250,-4.395
1607281241.189,40.039,32.715,31.738,42.480,29.297
1607281241.193,16.602,33.203,32.227,17.578,18.555
1607281241.197,13.672,31.250,29.297,0.000,12.207
1607281241.201,28.320,31.250,29.785,18.066,27.832
1607281241.205,43.945,36.133,31.738,37.598,-10.742
1607281241.209,26.367,38.086,31.738,13.672,-12.695
1607281241.213,8.789,35.645,31.250,-6.348,-14.160
1607281241.217,22.461,35.156,33.691,11.230,41.992
1607281241.221,37.598,32.715,33.203,37.109,86.426
1607281241.225,31.250,29.297,33.203,28.320,30.273
1607281241.228,16.602,30.762,33.691,0.000,42.480
1607281241.232,21.484,35.645,30.762,0.977,78.613
1607281241.236,36.621,35.645,30.273,28.809,37.109
1607281241.240,39.062,33.203,31.250,34.180,51.758
1607281241.244,22.461,32.227,32.227,7.324,93.750
1607281241.248,17.090,32.227,32.715,1.465,77.148
1607281241.252,35.645,32.227,32.227,26.855,66.406
1607281241.256,45.898,31.738,31.250,39.551,1.465
1607281241.260,27.832,33.691,31.738,13.184,17.090
1607281241.264,16.602,31.738,32.227,-4.395,43.945
1607281241.267,29.785,26.855,29.297,6.348,-21.484
1607281241.271,41.016,27.344,30.273,29.785,2.441
1607281241.275,26.367,25.391,36.133,24.414,-19.043
1607281241.279,13.184,23.926,34.668,1.953,-18.555
1607281241.283,23.926,27.344,29.785,8.301,27.344
1607281241.287,42.969,30.273,29.297,31.738,24.902
1607281241.291,39.062,31.738,30.762,26.855,13.672
1607281241.295,17.578,28.320,31.738,-1.953,19.043
1607281241.299,19.531,28.320,31.250,0.488,15.137
1607281241.303,35.156,25.391,30.762,24.902,57.617
1607281241.307,38.574,26.855,31.250,33.203,33.691
1607281241.310,27.344,33.691,32.227,14.648,0.977
1607281241.314,25.879,32.227,31.250,-0.488,50.781
1607281241.318,44.434,29.785,32.715,22.461,52.246
1607281241.322,52.734,28.809,32.227,46.387,24.414
1607281241.326,28.809,28.809,33.203,17.578,48.340
1607281241.330,15.625,27.832,31.250,-3.418,94.727
1607281241.334,24.414,26.367,26.367,15.137,63.477
1607281241.338,30.762,25.391,30.762,36.621,29.785
1607281241.342,21.484,21.484,31.738,29.297,71.289
1607281241.346,9.766,20.020,29.785,5.859,104.492
1607281241.350,13.672,24.902,31.250,8.301,45.898
1607281241.353,39.062,30.762,31.738,38.086,-2.930
1607281241.357,38.086,33.203,33.203,33.691,18.555
1607281241.361,18.066,35.156,31.250,6.836,-8.301
1607281241.365,24.414,37.598,27.344,4.395,-5.859
1607281241.369,44.434,35.645,25.391,27.832,27.344
1607281241.373,46.875,33.691,28.809,35.645,37.598
1607281241.377,27.832,31.250,30.762,5.371,9.277
1607281241.381,20.020,29.785,31.250,-2.441,-18.555
1607281241.385,36.133,27.832,31.738,24.414,29.297
1607281241.389,51.270,29.297,31.738,39.062,19.043
1607281241.392,38.086,30.273,30.762,20.996,51.758
1607281241.396,23.926,29.785,29.297,-1.953,53.711
1607281241.400,31.738,34.180,29.297,5.371,13.184
1607281241.404,45.898,33.203,30.273,31.250,57.129
1607281241.408,37.598,37.109,29.297,19.043,17.578
1607281241.412,22.949,37.598,30.273,-1.465,10.254
1607281241.416,24.902,31.250,29.297,3.418,-13.672
1607281241.420,40.527,31.250,27.832,22.949,-7.812
1607281241.424,38.574,34.180,30.762,25.391,82.520
1607281241.428,21.973,32.715,34.180,6.348,31.738
1607281241.432,18.066,30.762,31.250,1.465,-2.930
1607281241.435,37.598,32.227,29.297,21.484,-28.809
1607281241.439,41.992,29.785,30.273,36.621,-34.180
1607281241.443,22.461,29.297,28.809,11.230,43.945
1607281241.447,21.973,31.250,30.762,4.883,54.688
1607281241.451,38.574,32.715,33.203,25.391,56.641
1607281241.455,51.270,35.156,31.738,38.086,57.617
1607281241.459,36.621,34.180,30.273,25.391,35.156
1607281241.463,18.555,36.621,29.297,6.348,22.949
1607281241.467,32.715,37.598,28.320,15.625,11.719
1607281241.471,49.805,33.691,27.832,37.598,6.836
1607281241.475,35.645,29.785,28.809,31.250,32.227
1607281241.478,18.555,29.297,29.785,7.324,54.199
1607281241.482,21.484,32.227,28.320,3.906,11.719
1607281241.486,40.039,33.691,26.855,29.297,33.203
1607281241.490,36.621,31.250,28.809,31.250,103.027
1607281241.494,19.531,30.762,28.809,8.301,71.289
1607281241.498,21.484,30.762,29.297,4.395,56.641
1607281241.502,38.086,29.297,28.809,22.949,82.520
1607281241.506,42.969,30.273,30.762,36.133,59.082
1607281241.510,23.926,30.762,33.203,17.090,-3.906
1607281241.514,15.137,27.344,34.668,10.254,-46.387
1607281241.517,30.273,30.273,36.133,26.367,19.531
1607281241.521,44.922,31.738,34.180,43.945,56.641
1607281241.525,37.109,29.785,36.133,32.715,14.648
1607281241.529,26.855,32.227,35.156,3.418,-31.250
1607281241.533,25.391,33.203,26.855,-0.488,-5.859
1607281241.537,60.547,36.133,16.602,44.434,4.883
1607281241.541,68.848,35.156,21.973,59.570,19.043
1607281241.545,9.766,26.855,41.504,1.953,50.781
1607281241.549,-26.855,20.020,44.922,-31.738,39.551
1607281241.553,-12.207,16.113,44.922,-9.277,18.066
1607281241.557,-22.949,14.160,55.176,-17.578,25.879
1607281241.560,-75.195,11.719,63.965,-72.754,56.152
1607281241.564,-94.727,2.441,68.359,-90.332,48.340
1607281241.568,-94.727,1.465,70.801,-85.449,-22.461
1607281241.572,-105.957,7.812,72.754,-97.656,-49.316
1607281241.576,-151.367,0.977,82.520,-139.160,32.715
1607281241.580,-187.012,0.977,89.355,-177.246,35.645
1607281241.584,-184.570,3.906,92.285,-175.293,56.152
1607281241.588,-199.219,-4.883,98.633,-174.805,72.266
1607281241.592,-240.723,-4.395,93.750,-209.961,50.781
1607281241.596,-260.742,-0.488,84.473,-244.629,28.809
1607281241.600,-265.137,-9.766,84.473,-245.605,-4.883
1607281241.603,-264.160,-17.090,94.238,-229.980,5.371
1607281241.607,-281.250,-8.789,107.910,-248.047,44.922
1607281241.611,-308.594,-1.953,112.305,-286.621,26.855
1607281241.615,-311.523,-4.395,118.652,-292.480,17.578
1607281241.619,-298.340,-1.465,120.605,-274.414,70.312
1607281241.623,-299.805,0.488,119.629,-272.949,52.246
1607281241.627,-313.965,-1.953,124.512,-290.527,-44.434
1607281241.631,-304.688,-4.395,130.859,-289.062,-35.645
1607281241.635,-286.621,-4.395,135.254,-259.277,22.949
1607281241.639,-266.113,-5.859,134.766,-230.469,34.668
1607281241.642,-258.301,-11.230,132.324,-229.004,41.504
1607281241.646,-255.859,-16.113,125.488,-225.098,62.012
1607281241.650,-224.121,-16.602,100.098,-189.941,16.602
1607281241.654,-176.270,-30.762,84.961,-137.207,1.465
1607281241.658,-160.156,-15.137,102.051,-123.047,27.832
1607281241.662,-166.992,-1.953,113.281,-145.508,19.043
1607281241.666,-162.598,-29.785,105.469,-139.160,17.090
1607281241.670,-124.023,-41.016,90.820,-90.820,46.387
1607281241.674,-103.027,-39.062,97.656,-68.359,116.211
1607281241.678,-106.934,-40.527,107.422,-83.984,77.637
1607281241.682,-86.914,-32.715,101.562,-82.031,18.066
1607281241.685,-54.199,-18.555,102.051,-41.504,32.227
1607281241.689,-28.809,-12.695,95.215,-2.441,53.711
1607281241.693,-27.832,-22.461,76.660,-3.418,51.758
1607281241.697,-22.461,-30.762,71.777,-6.836,17.578
1607281241.701,4.395,-32.715,80.566,20.996,-3.906
1607281241.705,35.156,-39.551,78.613,61.523,19.043
1607281241.709,32.715,-35.156,70.801,58.594,56.152
1607281241.713,26.855,-24.414,67.871,45.898,28.809
1607281241.717,45.410,-23.438,60.059,63.477,10.742
1607281241.721,74.707,-23.438,50.781,96.191,28.809
1607281241.725,81.543,-17.090,53.223,100.586,29.297
1607281241.728,78.613,-9.277,55.664,87.891,-20.508
1607281241.732,88.379,-14.160,41.504,103.027,-16.113
1607281241.736,109.375,-15.625,31.250,129.883,36.621
1607281241.740,112.793,-13.184,41.504,120.605,2.930
1607281241.744,95.703,-8.789,52.246,95.215,17.090
1607281241.748,93.750,-5.859,45.898,94.238,13.672
1607281241.752,116.699,0.000,41.016,120.117,11.719
1607281241.756,128.418,8.301,37.109,143.066,76.660
1607281241.760,104.004,3.906,42.480,121.094,48.828
1607281241.764,96.680,-0.977,44.434,108.398,-1.465
1607281241.767,115.723,0.488,37.598,132.324,71.289
1607281241.771,125.000,3.906,39.551,148.438,113.281
1607281241.775,96.680,7.324,33.203,109.863,115.234
1607281241.779,74.707,12.695,25.391,83.984,61.035
1607281241.783,83.984,14.160,23.438,92.285,22.461
1607281241.787,98.145,11.719,24.414,91.309,86.426
1607281241.791,89.355,11.719,31.738,73.730,58.594
1607281241.795,70.801,8.789,22.949,53.711,8.789
1607281241.799,70.312,7.324,23.926,62.012,20.508
1607281241.803,84.961,12.207,42.969,90.332,20.508
1607281241.807,83.496,11.230,46.387,97.656,23.438
1607281241.810,62.012,14.648,40.527,72.266,62.988
1607281241.814,67.383,28.809,39.062,73.730,54.688
1607281241.818,83.496,26.855,38.574,94.238,-44.922
1607281241.822,79.102,18.066,24.902,92.285,-29.297
1607281241.826,63.477,23.438,20.508,80.078,20.996
1607281241.830,52.246,18.555,33.691,70.312,42.480
1607281241.834,65.430,17.578,41.016,96.191,41.016
1607281241.838,81.055,27.832,41.016,132.812,-17.578
1607281241.842,62.988,28.809,43.457,123.047,22.949
1607281241.846,49.805,30.273,38.086,92.285,-1.465
1607281241.850,59.082,27.832,28.809,74.707,14.160
1607281241.853,75.195,24.414,32.715,85.938,53.711
1607281241.857,85.449,31.250,32.227,83.496,7.812
1607281241.861,62.988,33.691,14.648,26.367,46.387
1607281241.865,35.156,23.926,20.996,-19.043,31.250
1607281241.869,45.898,20.020,41.016,6.836,2.930
1607281241.873,49.316,21.484,46.875,27.344,-15.137
1607281241.877,27.832,20.020,47.852,9.766,-59.082
1607281241.881,29.297,23.926,41.992,1.953,-19.043
1607281241.885,45.898,30.273,39.551,21.973,41.504
1607281241.889,51.758,23.926,36.621,44.434,76.660
1607281241.892,39.551,29.785,27.344,30.762,36.133
1607281241.896,34.180,41.016,26.367,20.508,-11.230
1607281241.900,34.668,28.320,28.320,28.809,-38.574
1607281241.904,39.062,23.926,35.156,41.992,-27.344
1607281241.908,36.621,30.762,37.598,36.133,34.180
1607281241.912,14.648,27.344,25.879,9.766,80.566
1607281241.916,17.090,24.902,19.531,12.695,63.965
1607281241.920,46.875,28.320,20.020,38.086,-19.531
1607281241.924,44.434,32.227,16.113,39.551,-17.090
1607281241.928,27.344,28.320,22.949,19.043,-12.207
1607281241.932,29.785,27.832,23.926,16.602,20.020
1607281241.935,51.270,37.598,19.531,42.480,82.031
1607281241.939,58.594,41.016,28.320,55.664,74.219
1607281241.943,42.969,37.598,31.738,35.645,44.434
1607281241.947,35.156,33.203,29.785,27.344,48.340
1607281241.951,50.781,35.156,34.180,58.105,48.340
1607281241.955,64.941,33.203,35.156,69.824,107.910
1607281241.959,50.781,30.273,28.320,35.645,80.078
1607281241.963,37.109,33.691,22.461,17.578,55.664
1607281241.967,43.457,29.785,20.508,30.273,52.246
1607281241.971,58.594,28.809,20.020,50.781,-20.020
1607281241.975,43.945,29.785,17.090,35.156,30.273
1607281241.978,30.273,28.809,20.996,11.230,8.789
1607281241.982,37.109,30.273,27.832,19.531,-16.602
1607281241.986,53.223,38.086,27.832,44.434,28.809
1607281241.990,54.688,43.457,29.785,52.734,41.504
1607281241.994,31.250,34.180,25.879,28.320,44.922
1607281241.998,27.832,31.738,20.508,15.625,-20.020
1607281242.002,49.805,31.250,21.484,38.574,-36.133
1607281242.006,63.477,40.039,26.367,58.105,18.066
1607281242.010,44.922,45.898,22.949,29.297,50.293
1607281242.014,36.621,39.551,15.625,8.301,52.734
1607281242.017,55.664,36.133,14.648,31.250,-1.465
1607281242.021,69.336,36.621,21.484,58.594,9.766
1607281242.025,54.688,40.039,24.414,47.852,2.441
1607281242.029,38.574,33.203,24.902,21.973,-39.062
1607281242.033,41.992,31.738,27.832,24.414,-16.113
1607281242.037,54.199,35.156,26.855,55.664,-11.719
1607281242.041,45.410,26.367,21.973,40.527,10.254
1607281242.045,28.809,23.438,15.137,8.301,28.320
1607281242.049,32.715,31.250,11.230,18.555,13.184
1607281242.053,54.199,41.016,20.996,49.805,40.527
1607281242.057,56.641,45.410,31.250,61.035,44.434
1607281242.060,33.691,41.504,32.715,39.062,38.086
1607281242.064,30.762,37.598,28.320,36.621,-4.883
1607281242.068,51.758,39.551,21.484,68.848,-41.992
1607281242.072,65.918,46.875,27.832,93.262,50.293
1607281242.076,52.246,40.527,32.715,44.434,69.824
1607281242.080,40.039,38.574,20.508,-7.812,40.039
1607281242.084,57.129,44.922,20.996,18.066,17.578
1607281242.088,64.941,43.945,25.391,40.527,50.293
1607281242.092,47.852,47.852,20.996,14.160,31.250
1607281242.096,39.551,45.410,18.555,0.977,-43.945
1607281242.100,61.523,44.922,18.555,24.414,-3.906
1607281242.103,67.383,41.016,27.344,48.340,24.414
1607281242.107,37.109,38.086,36.133,33.203,17.090
1607281242.111,21.484,39.062,33.203,6.836,94.238
1607281242.115,21.973,37.109,33.203,3.418,116.699
1607281242.119,44.922,39.551,35.645,36.133,99.121
1607281242.123,50.781,30.273,36.133,54.199,118.652
1607281242.127,29.785,25.879,38.086,28.809,85.449
1607281242.131,21.973,29.785,29.297,4.883,70.801
1607281242.135,34.180,29.297,19.043,19.531,19.043
1607281242.139,44.922,36.133,21.973,46.875,-14.160
1607281242.142,33.203,41.016,23.926,33.203,57.129
1607281242.146,25.391,35.645,21.973,17.090,60.059
1607281242.150,37.109,33.691,24.902,29.785,53.711
1607281242.154,54.199,37.109,25.879,51.270,68.359
1607281242.158,43.457,37.109,26.367,35.156,64.453
1607281242.162,26.855,33.691,29.297,10.254,15.625
1607281242.166,34.180,30.762,24.414,20.508,14.648
1607281242.170,48.340,31.250,21.484,43.457,55.664
1607281242.174,50.293,42.480,27.344,45.898,28.809
1607281242.178,36.133,41.504,32.715,24.414,15.625
1607281242.182,25.391,31.250,26.367,13.672,27.344
1607281242.185,30.762,28.809,12.695,28.320,9.277
1607281242.189,40.527,27.344,22.949,41.992,37.598
1607281242.193,32.715,22.461,31.738,19.531,67.871
1607281242.197,24.414,24.902,24.414,2.930,39.551
1607281242.201,40.039,32.227,24.902,26.855,14.648
1607281242.205,47.852,33.203,28.809,40.039,40.039
1607281242.209,28.809,34.668,29.297,19.043,35.156
1607281242.213,22.949,36.621,28.320,-0.977,4.395
1607281242.217,41.016,32.715,30.762,16.113,-16.113
1607281242.221,53.223,32.715,29.297,42.969,-30.273
1607281242.225,39.062,35.156,27.344,30.762,-11.719
1607281242.228,28.320,36.621,34.668,13.672,8.301
1607281242.232,30.273,31.738,32.227,20.996,-24.414
1607281242.236,34.180,27.344,25.879,44.922,-51.270
1607281242.240,34.180,30.762,29.785,41.016,-9.766
1607281242.244,23.926,32.227,32.715,15.137,43.457
1607281242.248,21.973,28.320,24.902,7.324,62.500
1607281242.252,37.109,28.320,23.438,30.762,42.969
1607281242.256,36.621,33.203,28.320,39.551,68.359
1607281242.260,21.973,35.156,28.320,10.254,35.645
1607281242.264,19.043,37.109,25.391,0.000,6.836
1607281242.267,26.367,34.180,25.879,25.391,49.316
1607281242.271,36.133,26.855,26.855,46.387,80.078
1607281242.275,28.809,28.320,30.762,26.855,43.945
1607281242.279,23.926,34.668,33.203,7.324,-42.969
1607281242.283,31.250,30.762,31.250,21.973,-28.809
1607281242.287,46.875,30.273,33.691,50.293,32.715
1607281242.291,44.434,36.621,35.156,40.527,74.707
1607281242.295,22.461,34.180,27.344,6.836,67.383
1607281242.299,25.879,35.645,24.902,7.812,44.434
1607281242.303,43.457,34.180,29.297,33.691,22.949
1607281242.307,34.668,27.344,25.879,28.320,10.254
1607281242.310,15.137,29.297,23.438,-2.930,77.148
1607281242.314,19.043,33.203,27.344,-7.324,40.527
1607281242.318,35.156,29.297,28.809,23.926,-32.227
1607281242.322,40.039,26.855,26.855,44.434,103.516
1607281242.326,30.273,30.762,28.809,23.926,116.211
1607281242.330,21.484,33.691,29.785,-0.488,1.465
1607281242.334,26.855,32.715,30.762,13.672,7.812
1607281242.338,34.180,28.809,36.133,37.598,23.438
1607281242.342,29.297,31.738,40.039,22.461,30.273
1607281242.346,22.461,32.715,34.180,1.953,35.156
1607281242.350,26.367,30.762,34.180,16.602,43.457
1607281242.353,41.504,36.133,34.668,49.316,58.105
1607281242.357,28.809,35.645,27.344,36.133,36.621
1607281242.361,13.672,34.668,24.902,5.859,26.855
1607281242.365,20.996,36.621,27.832,7.812,25.879
1607281242.369,31.738,34.668,28.809,31.738,67.383
1607281242.373,36.621,35.645,32.715,37.598,56.641
1607281242.377,29.785,41.992,32.227,12.207,-0.488
1607281242.381,21.484,36.133,25.391,0.977,11.719
1607281242.385,32.227,31.738,21.973,25.391,-20.508
1607281242.389,39.062,30.273,24.902,40.039,6.348
1607281242.392,25.879,32.715,36.133,15.625,43.945
1607281242.396,25.391,38.086,38.574,-0.488,3.418
1607281242.400,31.250,30.762,29.297,15.625,8.789
1607281242.404,41.504,28.320,27.832,42.480,28.320
1607281242.408,41.992,35.156,33.691,29.785,42.480
1607281242.412,25.391,37.109,33.203,1.465,79.590
1607281242.416,28.320,33.203,30.762,8.789,35.156
1607281242.420,43.945,36.621,29.785,37.598,-31.250
1607281242.424,41.016,39.551,28.809,33.203,37.598
1607281242.428,25.879,38.574,24.902,5.371,69.336
1607281242.432,20.996,31.738,24.902,2.441,51.270
1607281242.435,34.668,29.297,31.738,25.879,62.500
1607281242.439,36.621,35.156,31.250,28.320,38.086
1607281242.443,25.879,40.039,36.133,2.930,34.180
1607281242.447,21.484,42.969,38.574,-3.906,27.832
1607281242.451,34.668,41.992,36.133,20.996,-1.953
1607281242.455,32.227,31.250,31.250,28.320,-1.465
1607281242.459,11.230,27.344,21.484,-0.488,3.906
1607281242.463,4.395,27.344,23.438,-18.066,6.836
1607281242.467,10.742,22.949,25.391,-2.930,7.324
1607281242.471,24.902,26.855,26.367,35.156,29.297
1607281242.475,18.555,32.227,32.227,24.902,-28.320
1607281242.478,11.230,31.250,35.156,-0.977,-32.227
1607281242.482,21.484,30.273,37.109,13.672,-11.719
1607281242.486,36.133,30.273,36.621,41.504,-8.789
1607281242.490,38.086,27.832,37.109,43.457,49.316
1607281242.494,28.320,30.273,37.109,14.160,32.227
1607281242.498,28.809,41.016,39.551,10.742,37.598
1607281242.502,40.039,42.480,37.598,37.598,41.992
1607281242.506,35.645,36.621,28.809,40.527,28.809
1607281242.510,20.996,39.551,27.344,15.137,41.504
1607281242.514,20.020,39.551,29.297,0.488,-15.137
1607281242.517,32.715,35.645,33.203,17.090,-6.348
1607281242.521,42.969,33.203,31.250,36.621,20.996
1607281242.525,34.668,37.109,35.156,20.508,9.766
1607281242.529,29.785,40.039,33.691,2.930,-31.738
1607281242.533,39.062,31.250,25.879,10.742,-20.020
1607281242.537,49.316,29.785,32.715,40.039,39.551
1607281242.541,36.621,30.762,34.668,40.527,20.020
1607281242.545,20.020,33.203,26.855,14.648,83.008
1607281242.549,26.855,33.203,26.855,22.461,94.727
1607281242.553,51.270,28.320,37.109,60.059,42.480
1607281242.557,58.594,37.109,39.551,58.594,43.457
1607281242.560,28.809,26.367,28.809,16.113,25.879
1607281242.564,15.625,13.184,27.832,-2.441,36.133
1607281242.568,24.414,23.438,37.109,20.508,90.332
1607281242.572,34.180,34.180,43.945,42.480,73.242
1607281242.576,28.809,37.598,47.363,22.461,62.500
1607281242.580,9.277,27.832,36.133,-7.324,63.477
1607281242.584,13.672,31.250,28.320,9.277,4.395
1607281242.588,31.738,33.203,28.809,34.180,10.254
1607281242.592,22.461,31.738,29.297,19.531,15.137
1607281242.596,13.184,36.621,28.809,-2.930,31.738
1607281242.600,25.391,29.785,30.762,8.301,13.184
1607281242.603,40.039,26.367,33.691,40.039,-19.043
1607281242.607,41.504,36.621,40.039,39.062,27.344
1607281242.611,26.855,33.691,39.551,11.719,72.754
1607281242.615,22.461,21.973,30.762,5.859,8.301
1607281242.619,40.039,18.555,27.832,31.250,-44.922
1607281242.623,43.457,19.531,28.320,38.086,22.461
1607281242.627,22.949,25.879,25.879,12.695,39.551
1607281242.631,20.020,34.668,33.691,4.883,4.883
1607281242.635,33.203,34.180,33.203,21.973,6.348
1607281242.639,43.457,34.180,33.691,47.363,18.066
1607281242.642,32.715,37.109,39.062,28.320,21.973
1607281242.646,14.160,31.738,25.879,-0.977,-20.508
1607281242.650,28.809,29.785,32.227,23.926,-37.109
1607281242.654,39.551,31.250,37.598,42.480,-11.719
1607281242.658,15.137,27.344,24.414,10.254,1.953
1607281242.662,4.883,27.832,25.391,-9.277,11.230
1607281242.666,19.043,30.762,28.320,4.883,27.344
1607281242.670,33.691,30.273,30.273,30.273,-20.996
1607281242.674,24.414,32.227,36.621,26.367,-12.207
1607281242.678,9.766,27.832,36.621,-0.488,66.895
1607281242.682,15.625,19.531,39.062,1.465,31.738
1607281242.685,35.645,21.484,42.969,35.156,4.395
1607281242.689,33.203,31.250,38.574,41.992,20.996
1607281242.693,9.277,39.551,33.203,11.719,35.645
1607281242.697,10.254,39.551,27.832,0.000,52.246
1607281242.701,30.273,38.086,34.668,29.785,81.543
1607281242.705,33.691,38.086,40.527,42.969,70.312
1607281242.709,12.207,34.668,33.203,7.812,76.660
1607281242.713,2.441,23.438,31.738,-11.230,59.082
1607281242.717,20.508,23.926,36.621,14.160,30.762
1607281242.721,36.621,33.691,39.551,44.434,19.531
1607281242.725,17.578,29.297,33.203,19.043,13.184
1607281242.728,4.883,27.832,23.438,-9.277,42.969
1607281242.732,21.484,28.320,28.809,6.348,30.762
1607281242.736,44.434,30.273,37.109,35.645,-9.766
1607281242.740,34.180,30.762,32.227,29.297,53.223
1607281242.744,12.207,27.344,29.785,7.324,53.223
1607281242.748,16.113,26.367,32.227,8.789,27.832
1607281242.752,33.691,21.973,35.645,36.133,10.254
1607281242.756,35.645,16.113,31.250,46.387,-3.418
1607281242.760,14.648,19.531,29.785,15.137,-32.227
1607281242.764,8.789,30.273,33.203,5.371,-28.809
1607281242.767,24.414,33.203,34.668,24.902,15.625
1607281242.771,35.645,32.227,38.086,46.387,-10.254
1607281242.775,18.066,29.297,37.598,24.902,-14.160
1607281242.779,1.465,24.902,30.273,-7.812,23.438
1607281242.783,17.090,24.414,36.621,12.695,44.434
1607281242.787,33.691,28.320,41.504,41.992,11.230
1607281242.791,20.996,30.762,31.250,25.391,-27.832
1607281242.795,6.836,28.320,30.762,-0.488,3.906
1607281242.799,16.602,29.297,32.227,3.906,44.922
1607281242.803,35.645,26.367,29.785,34.180,33.203
1607281242.807,33.203,29.297,32.715,39.062,57.129
1607281242.810,16.113,29.785,34.668,2.930,8.301
1607281242.814,12.695,18.555,33.203,-5.371,-55.664
1607281242.818,29.785,17.578,30.762,28.320,12.695
1607281242.822,41.016,23.926,33.203,46.387,5.371
1607281242.826,23.438,36.133,35.645,12.207,2.930
1607281242.830,13.184,42.969,29.785,-8.301,45.898
1607281242.834,23.438,38.574,22.461,12.695,60.059
1607281242.838,42.969,44.922,27.832,44.922,33.691
1607281242.842,35.156,43.945,37.598,33.691,-10.742
1607281242.846,3.418,30.762,22.949,-13.672,11.230
1607281242.850,7.812,33.691,10.742,-6.836,59.082
1607281242.853,30.762,35.645,14.160,26.855,36.133
1607281242.857,23.926,31.250,22.461,22.949,25.391
1607281242.861,11.230,37.598,25.391,0.488,56.152
1607281242.865,23.926,39.551,21.484,1.953,44.922
1607281242.869,43.457,34.180,16.113,29.785,34.668
1607281242.873,38.086,36.621,16.113,35.156,28.320
1607281242.877,20.996,37.598,24.902,6.836,10.742
1607281242.881,21.973,39.062,34.180,0.977,13.184
1607281242.885,35.156,41.992,37.109,26.367,49.316
1607281242.889,35.645,32.715,31.738,37.109,62.988
1607281242.892,30.762,29.297,31.250,16.602,15.625
1607281242.896,26.367,35.156,26.367,-3.906,18.066
1607281242.900,32.715,37.598,19.531,11.719,68.848
1607281242.904,47.852,42.480,22.461,39.062,93.750
1607281242.908,34.180,39.551,21.973,22.461,56.641
1607281242.912,17.578,30.762,17.578,-3.906,32.715
1607281242.916,19.531,31.738,19.531,2.930,37.109
1607281242.920,34.668,36.621,23.926,35.156,41.504
1607281242.924,34.180,37.598,28.320,32.715,43.457
1607281242.928,11.719,28.320,24.902,-3.418,-12.207
1607281242.932,14.160,31.250,23.438,-4.395,-36.133
1607281242.935,38.574,38.574,27.832,32.227,15.137
1607281242.939,37.109,30.273,25.879,36.133,79.102
1607281242.943,20.020,28.809,21.973,6.836,77.148
1607281242.947,25.391,21.484,26.855,2.441,57.617
1607281242.951,38.574,14.648,31.250,22.949,13.184
1607281242.955,37.598,27.344,26.367,34.180,-7.812
1607281242.959,20.508,32.715,28.320,8.789,35.645
1607281242.963,13.184,33.691,24.902,-8.789,3.906
1607281242.967,30.273,37.598,20.996,14.648,-47.363
1607281242.971,50.293,36.133,32.715,43.945,0.488
1607281242.975,42.969,35.156,42.480,34.180,41.016
1607281242.978,19.043,29.785,36.621,7.812,61.523
1607281242.982,17.090,24.414,31.250,5.859,69.824
1607281242.986,39.551,30.762,29.297,32.715,31.738
1607281242.990,37.109,31.738,27.832,31.738,12.207
1607281242.994,17.578,30.273,33.203,2.441,18.555
1607281242.998,21.973,33.203,37.109,4.395,41.504
1607281243.002,40.039,30.762,35.156,31.738,6.836
1607281243.006,44.922,27.344,39.062,47.363,41.504
1607281243.010,34.668,31.250,49.805,34.180,43.945
1607281243.014,20.996,33.203,38.086,10.254,6.348
1607281243.017,23.926,32.715,20.996,17.578,74.219
1607281243.021,30.762,31.738,26.367,36.621,90.820
1607281243.025,23.438,33.203,33.203,22.461,79.590
1607281243.029,19.043,33.203,25.391,0.000,34.180
1607281243.033,25.391,27.832,23.926,8.301,31.738
1607281243.037,40.039,27.344,35.156,41.504,49.805
1607281243.041,30.273,36.133,34.668,31.250,47.363
1607281243.045,13.672,42.480,25.879,-0.488,66.406
1607281243.049,20.508,37.598,29.785,8.301,74.219
1607281243.053,35.156,30.762,30.273,37.109,49.316
1607281243.057,36.621,32.227,27.344,38.086,72.754
1607281243.060,29.297,23.926,41.016,16.602,91.797
1607281243.064,25.391,21.484,37.109,5.371,9.766
1607281243.068,31.738,34.668,24.414,20.508,6.348
1607281243.072,31.250,31.250,25.879,33.691,22.461
1607281243.076,19.043,32.227,24.414,16.113,-20.020
1607281243.080,20.508,37.598,34.668,8.789,-1.465
1607281243.084,29.297,32.715,33.691,23.926,24.414
1607281243.088,32.227,29.297,23.926,32.715,13.672
1607281243.092,23.926,29.297,28.809,17.578,46.387
1607281243.096,19.531,28.809,34.668,4.395,48.340
1607281243.100,26.855,23.438,36.133,12.695,65.430
1607281243.103,41.016,31.738,31.250,34.180,79.102
1607281243.107,29.297,37.598,23.438,17.090,74.707
1607281243.111,16.602,32.715,24.902,-7.812,36.133
1607281243.115,25.879,31.738,25.879,-0.977,-23.438
1607281243.119,43.457,30.273,31.738,30.273,27.832
1607281243.123,48.340,35.156,41.504,44.922,12.207
1607281243.127,26.855,32.715,33.203,19.043,-39.062
1607281243.131,19.043,27.344,27.832,6.348,-47.363
1607281243.135,34.668,28.809,31.738,26.367,-42.969
1607281243.139,31.738,26.367,30.762,30.273,-15.137
1607281243.142,12.695,28.809,32.715,4.883,9.277
1607281243.146,7.324,32.715,33.203,-4.883,-4.883
1607281243.150,18.555,25.391,30.273,13.672,-26.855
1607281243.154,37.109,19.531,27.344,33.203,-7.812
1607281243.158,30.762,29.297,34.180,18.555,-4.395
1607281243.162,12.695,35.156,39.062,-1.953,28.320
1607281243.166,15.625,33.691,30.762,-0.977,59.082
1607281243.170,35.156,33.691,33.203,26.367,-0.977
1607281243.174,36.133,35.645,38.574,31.738,-1.465
1607281243.178,20.996,36.133,33.203,-0.488,60.059
1607281243.182,26.367,37.598,34.180,0.000,22.461
1607281243.185,45.898,38.086,40.527,33.203,25.391
1607281243.189,37.598,31.738,38.086,30.273,53.711
1607281243.193,17.090,30.273,32.227,-1.465,51.758
1607281243.197,15.137,28.809,29.785,-7.324,42.480
1607281243.201,34.668,32.715,35.645,27.344,54.199
1607281243.205,41.016,33.691,35.156,46.387,80.566
1607281243.209,16.602,24.902,30.762,17.090,37.598
1607281243.213,13.672,25.391,26.367,8.301,7.324
1607281243.217,27.832,27.344,19.043,21.484,32.227
1607281243.221,47.363,31.738,28.809,47.363,52.734
1607281243.225,42.480,32.715,35.645,39.551,21.973
1607281243.228,20.508,27.832,31.250,6.348,-17.090
1607281243.232,33.203,32.715,29.785,13.184,-1.953
1607281243.236,45.410,34.668,28.809,38.086,43.457
1607281243.240,33.691,34.180,28.809,32.715,22.461
1607281243.244,19.531,32.227,27.832,7.324,-12.695
1607281243.248,18.066,31.738,28.809,4.883,-14.648
1607281243.252,32.227,34.180,24.414,25.391,38.086
1607281243.256,35.645,35.156,18.555,30.273,54.688
1607281243.260,20.996,32.715,26.367,4.395,36.621
1607281243.264,21.484,26.855,35.156,0.488,50.293
1607281243.267,42.969,28.320,35.156,29.297,28.809
1607281243.271,59.570,31.250,32.227,51.270,-16.602
1607281243.275,33.691,28.320,34.668,25.879,43.945
1607281243.279,17.578,25.879,34.668,0.000,76.172
1607281243.283,45.410,25.391,28.320,29.297,74.219
1607281243.287,61.523,22.949,29.297,62.012,75.684
1607281243.291,45.898,17.578,30.273,44.922,68.359
1607281243.295,40.527,17.578,30.762,30.273,33.203
1607281243.299,46.875,19.043,30.762,41.992,12.207
1607281243.303,64.453,15.137,28.809,66.406,-20.508
1607281243.307,69.336,17.578,29.785,67.871,20.996
1607281243.310,60.547,21.484,36.621,49.805,62.012
1607281243.314,61.523,23.438,37.109,48.828,13.184
1607281243.318,63.477,20.020,25.391,61.035,40.039
1607281243.322,60.059,17.578,26.855,66.406,51.270
1607281243.326,40.039,23.926,25.879,41.504,44.434
1607281243.330,34.668,25.879,10.742,29.785,42.480
1607281243.334,52.734,24.414,1.465,53.223,-18.066
1607281243.338,60.059,24.414,18.555,72.266,-66.406
1607281243.342,47.852,25.879,50.781,49.316,-28.320
1607281243.346,40.039,25.391,55.664,21.973,13.184
1607281243.350,47.363,18.066,41.504,32.227,20.996
1607281243.353,55.664,16.602,41.992,52.734,18.555
1607281243.357,40.039,27.832,37.109,30.273,-5.371
1607281243.361,22.949,36.133,30.762,4.395,27.344
1607281243.365,31.250,33.203,30.762,13.672,49.805
1607281243.369,42.480,31.250,27.344,39.551,11.719
1607281243.373,39.062,31.738,29.785,41.016,-22.949
1607281243.377,30.273,32.715,33.691,16.602,20.508
1607281243.381,29.785,33.203,28.320,13.184,20.996
1607281243.385,42.969,30.762,28.320,42.480,56.641
1607281243.389,47.363,25.391,33.691,61.035,71.289
1607281243.392,30.762,28.809,30.273,39.551,13.672
1607281243.396,27.832,33.691,26.855,19.043,34.668
1607281243.400,39.551,30.273,28.320,31.250,2.441
1607281243.404,48.340,24.902,29.297,49.805,-49.805
1607281243.408,35.645,27.344,24.414,32.227,-15.137
1607281243.412,22.949,30.762,22.949,13.184,-6.348
1607281243.416,30.762,28.809,27.344,21.973,-8.301
1607281243.420,46.875,32.227,39.551,47.363,-1.953
1607281243.424,46.875,35.156,43.945,47.363,29.785
1607281243.428,28.809,29.785,33.203,12.695,23.438
1607281243.432,29.297,29.785,30.762,11.719,27.344
1607281243.435,45.410,28.320,32.715,43.457,59.570
1607281243.439,46.875,26.855,35.156,49.805,60.059
1607281243.443,31.250,33.691,37.109,21.484,24.902
1607281243.447,31.250,35.156,36.621,14.648,-5.371
1607281243.451,43.945,31.738,30.762,37.109,22.949
1607281243.455,47.363,34.180,30.762,44.922,103.516
1607281243.459,32.227,36.621,34.668,22.461,81.055
1607281243.463,23.926,35.156,32.715,5.371,4.883
1607281243.467,36.133,31.738,32.715,24.414,-32.715
1607281243.471,48.828,32.715,33.203,47.852,28.809
1607281243.475,36.621,34.668,34.668,29.785,67.383
1607281243.478,24.414,33.203,36.133,3.418,26.855
1607281243.482,30.273,32.715,33.691,12.695,54.688
1607281243.486,45.898,31.738,32.227,47.363,17.578
1607281243.490,47.852,28.809,30.762,50.293,19.043
1607281243.494,33.691,31.738,28.320,20.996,59.082
1607281243.498,25.879,32.715,27.832,9.766,77.148
1607281243.502,34.180,29.785,28.320,30.762,47.363
1607281243.506,35.156,27.832,23.926,40.039,-9.766
1607281243.510,31.738,28.320,21.973,24.414,16.113
1607281243.514,42.480,26.367,27.832,23.438,28.320
1607281243.517,46.387,21.973,19.531,35.156,35.645
1607281243.521,58.105,24.902,14.160,56.152,41.016
1607281243.525,47.852,25.391,18.555,41.504,53.223
1607281243.529,35.645,24.414,19.531,20.508,27.344
1607281243.533,48.340,25.391,18.555,41.016,30.273
1607281243.537,58.105,28.320,18.066,62.500,64.453
1607281243.541,51.270,31.738,19.043,45.410,32.227
1607281243.545,44.922,33.691,19.531,24.902,10.742
1607281243.549,48.340,33.203,18.066,30.762,-13.184
1607281243.553,57.129,32.715,19.531,54.199,38.574
1607281243.557,49.805,32.715,21.973,52.734,40.039
1607281243.560,33.203,33.203,24.902,23.438,60.059
1607281243.564,32.227,32.715,24.902,21.973,78.125
1607281243.568,47.852,32.227,23.926,46.875,-4.883
1607281243.572,51.270,33.691,23.926,53.711,-8.789
1607281243.576,32.715,35.156,29.785,30.762,18.555
1607281243.580,29.785,32.715,31.738,16.113,37.598
1607281243.584,46.387,31.738,29.297,39.551,65.430
1607281243.588,54.688,32.715,30.273,60.547,83.984
1607281243.592,41.016,34.180,28.809,31.250,42.969
1607281243.596,35.645,35.645,26.855,9.766,24.902
1607281243.600,44.922,31.250,28.809,25.879,19.531
1607281243.603,55.176,26.855,29.785,42.969,55.664
1607281243.607,47.363,33.691,29.297,30.762,57.129
1607281243.611,33.203,38.574,27.832,10.254,-11.230
1607281243.615,33.691,35.156,28.809,11.230,-8.789
1607281243.619,44.922,28.809,28.320,35.645,18.555
1607281243.623,44.434,32.715,29.297,41.504,1.953
1607281243.627,28.809,36.621,31.738,19.043,14.648
1607281243.631,26.367,33.203,33.203,16.113,4.395
1607281243.635,41.016,31.250,33.203,36.621,-37.109
1607281243.639,48.340,33.691,32.715,48.828,-43.945
1607281243.642,36.133,35.645,31.738,28.320,5.371
1607281243.646,30.273,33.203,32.227,8.789,21.484
1607281243.650,39.062,33.203,32.227,25.879,-31.250
1607281243.654,49.805,33.203,30.762,49.316,56.152
1607281243.658,37.109,33.203,32.715,31.738,141.113
1607281243.662,22.949,35.645,34.668,10.742,67.383
1607281243.666,28.320,32.715,32.227,18.555,27.344
1607281243.670,41.992,32.715,37.598,47.363,29.785
1607281243.674,41.504,35.645,41.504,45.898,19.531
1607281243.678,19.531,30.273,31.738,8.301,88.867
1607281243.682,15.625,26.367,27.344,0.977,83.008
1607281243.685,34.668,25.391,30.273,29.297,-12.207
1607281243.689,32.227,25.391,32.227,33.691,-10.742
1607281243.693,17.578,29.297,32.715,12.207,32.227
1607281243.697,19.043,29.785,33.691,4.883,43.945
1607281243.701,34.180,27.344,35.156,30.762,64.941
1607281243.705,44.434,29.785,33.203,51.270,27.344
1607281243.709,32.227,31.250,31.738,25.391,69.824
1607281243.713,25.391,32.227,35.645,6.348,61.523
1607281243.717,33.203,31.738,34.668,18.066,-21.973
1607281243.721,40.527,28.320,33.203,39.551,3.418
1607281243.725,28.809,30.762,33.691,27.832,4.395
1607281243.728,19.043,31.738,30.762,2.930,17.578
1607281243.732,28.809,29.785,24.902,12.207,71.289
1607281243.736,45.898,34.180,27.832,40.527,73.730
1607281243.740,41.016,38.086,32.227,36.621,14.648
1607281243.744,20.508,35.156,30.273,7.324,-0.977
1607281243.748,21.484,33.203,31.738,5.859,17.090
1607281243.752,38.086,31.250,31.738,33.691,-5.859
1607281243.756,41.504,31.738,32.715,40.039,31.738
1607281243.760,22.461,32.227,31.738,14.648,57.617
1607281243.764,16.602,28.809,28.809,3.418,5.859
1607281243.767,32.715,31.250,29.297,27.344,33.203
1607281243.771,39.551,33.691,33.203,47.363,90.820
1607281243.775,27.344,32.715,34.668,20.508,90.332
1607281243.779,19.531,30.273,33.203,1.953,39.062
1607281243.783,25.879,28.809,31.738,19.043,-14.160
1607281243.787,33.691,28.809,32.227,44.434,26.367
1607281243.791,26.367,30.762,32.227,35.156,40.039
1607281243.795,15.625,31.250,30.762,4.883,41.992
1607281243.799,13.672,28.809,31.250,5.371,41.992
1607281243.803,31.250,27.344,30.762,35.156,0.488
1607281243.807,30.762,28.320,29.297,30.762,35.645
1607281243.810,13.672,25.391,30.273,2.930,30.273
1607281243.814,17.578,24.902,29.785,3.906,29.785
1607281243.818,35.645,28.809,27.344,29.785,24.414
1607281243.822,42.480,29.785,26.855,46.875,-10.254
1607281243.826,25.879,29.785,27.344,18.555,8.301
1607281243.830,18.066,31.738,29.297,0.488,-11.230
1607281243.834,30.273,32.227,30.762,23.438,28.320
1607281243.838,37.109,31.250,27.344,38.574,72.266
1607281243.842,22.461,31.250,25.391,14.648,28.320
1607281243.846,14.160,32.227,25.391,-4.883,-6.836
1607281243.850,30.762,32.227,27.832,12.207,8.789
1607281243.853,42.969,27.832,28.809,41.016,22.461
1607281243.857,31.250,25.879,29.785,29.297,38.574
1607281243.861,21.973,31.738,30.762,-1.465,4.395
1607281243.865,23.438,33.203,26.367,-2.441,7.812
1607281243.869,37.109,34.668,26.855,28.320,2.930
1607281243.873,34.180,33.691,29.297,32.715,43.457
1607281243.877,15.625,32.715,29.785,5.371,66.406
1607281243.881,24.414,37.598,31.738,10.742,53.711
1607281243.885,37.598,30.273,26.367,32.715,58.105
1607281243.889,32.227,25.391,23.438,38.086,27.832
1607281243.892,19.531,26.855,28.320,16.113,69.336
1607281243.896,18.066,26.367,29.297,2.930,57.617
1607281243.900,34.180,29.785,26.367,27.832,17.090
1607281243.904,40.039,34.668,24.414,43.945,66.895
1607281243.908,22.949,36.133,32.227,14.160,69.336
1607281243.912,15.625,34.180,30.273,-8.301,10.742
1607281243.916,24.902,30.273,20.020,4.883,39.551
1607281243.920,37.598,31.250,20.020,29.297,44.922
1607281243.924,34.180,31.738,26.855,22.949,31.250
1607281243.928,24.414,32.715,25.391,1.953,45.410
1607281243.932,31.250,37.109,28.320,11.719,32.715
1607281243.935,48.828,29.785,41.992,41.504,46.875
1607281243.939,40.039,20.996,44.922,36.621,79.102
1607281243.943,16.602,26.855,40.527,9.277,41.016
1607281243.947,16.602,32.715,36.621,9.766,2.441
1607281243.951,31.250,32.227,34.180,35.645,46.875
1607281243.955,36.621,33.203,33.203,45.898,65.918
1607281243.959,33.203,35.156,27.344,29.785,-10.742
1607281243.963,33.203,33.691,24.414,21.973,-10.254
1607281243.967,7.812,29.297,32.227,10.742,31.738
1607281243.971,-7.812,21.484,41.992,8.789,84.961
1607281243.975,-18.066,22.461,48.340,-13.672,101.074
1607281243.978,-41.016,27.832,51.270,-42.969,22.949
1607281243.982,-44.922,28.320,41.992,-40.039,-9.766
1607281243.986,-49.805,25.879,29.785,-29.785,48.828
1607281243.990,-70.312,22.461,45.410,-47.363,68.848
1607281243.994,-90.820,23.438,63.477,-83.984,-14.160
1607281243.998,-87.402,26.855,57.617,-84.961,-17.090
1607281244.002,-75.684,21.484,55.664,-62.012,48.340
1607281244.006,-81.543,10.254,63.477,-62.988,73.730
1607281244.010,-101.074,9.277,62.988,-91.797,36.621
1607281244.014,-105.957,9.766,65.918,-107.910,43.945
1607281244.017,-74.219,2.441,71.289,-71.777,35.156
1607281244.021,-44.922,11.230,57.129,-32.227,43.945
1607281244.025,-50.293,19.043,42.969,-42.480,61.523
1607281244.029,-53.711,13.672,57.129,-54.199,11.719
1607281244.033,-30.273,18.066,61.523,-29.297,27.344
1607281244.037,-3.906,22.949,53.711,2.441,66.895
1607281244.041,-9.277,22.461,46.387,-1.465,39.551
1607281244.045,-13.672,22.461,40.527,-16.602,-11.719
1607281244.049,0.000,20.508,41.016,-0.977,-12.695
1607281244.053,23.438,20.996,43.945,32.227,29.297
1607281244.057,26.855,22.461,47.363,29.785,3.418
1607281244.060,18.555,17.090,41.504,5.371,41.504
1607281244.064,28.320,17.090,37.109,10.254,82.031
1607281244.068,41.016,21.973,41.504,38.086,17.578
1607281244.072,41.992,21.973,38.574,44.434,1.953
1607281244.076,30.273,25.391,31.250,26.367,30.762
1607281244.080,28.320,29.297,34.668,17.578,13.184
1607281244.084,41.992,27.344,41.992,35.156,-0.488
1607281244.088,51.758,24.414,43.945,52.734,6.348
1607281244.092,38.574,25.879,44.922,31.738,31.738
1607281244.096,31.738,28.809,40.527,11.230,37.109
1607281244.100,43.945,29.785,35.156,24.902,41.992
1607281244.103,53.223,31.738,33.691,47.363,-1.465
1607281244.107,42.969,32.715,40.527,38.086,45.410
1607281244.111,28.809,34.180,40.527,14.160,105.957
1607281244.115,32.715,31.738,35.156,22.461,65.430
1607281244.119,48.340,26.855,36.133,47.852,17.090
1607281244.123,43.457,35.645,36.621,40.527,31.738
1607281244.127,29.297,37.598,37.109,14.160,16.113
1607281244.131,28.320,31.738,34.180,10.742,-6.836
1607281244.135,42.969,33.203,34.180,36.621,35.645
1607281244.139,47.852,35.156,33.691,48.340,20.508
1607281244.142,24.414,30.762,28.809,20.996,3.906
1607281244.146,18.555,31.250,28.809,10.254,-18.066
1607281244.150,34.180,31.250,33.691,29.297,-7.812
1607281244.154,43.945,26.855,35.645,42.969,33.203
1607281244.158,33.203,29.785,33.691,25.879,41.016
1607281244.162,22.949,32.227,30.762,2.930,15.625
1607281244.166,32.715,29.785,28.809,13.672,65.430
1607281244.170,46.875,28.809,30.273,45.410,115.234
1607281244.174,41.992,27.832,34.180,40.039,54.688
1607281244.178,28.320,33.203,35.645,13.184,-10.254
1607281244.182,28.320,34.180,30.273,13.184,-41.504
1607281244.185,40.527,29.297,26.855,39.062,-17.090
1607281244.189,39.551,26.855,32.715,42.480,28.320
1607281244.193,26.367,30.273,35.156,14.648,52.246
1607281244.197,26.367,30.762,32.227,10.742,73.730
1607281244.201,47.363,33.691,31.250,41.504,84.961
1607281244.205,57.129,33.691,27.344,57.617,56.641
1607281244.209,31.738,21.973,20.508,21.484,95.703
1607281244.213,16.113,22.461,21.484,0.000,77.148
1607281244.217,28.320,28.320,24.902,22.949,-16.602
1607281244.221,41.504,26.855,27.344,43.457,17.578
1607281244.225,33.691,31.250,31.250,26.855,89.355
1607281244.228,24.414,33.691,33.691,7.812,84.473
1607281244.232,31.738,26.367,32.227,20.508,19.531
1607281244.236,52.246,26.367,30.273,49.316,3.906
1607281244.240,50.781,32.227,28.809,42.480,24.902
1607281244.244,30.273,32.227,27.832,15.137,41.504
1607281244.248,26.367,29.297,28.809,9.766,23.926
1607281244.252,43.457,25.879,31.738,38.086,3.906
1607281244.256,46.387,26.367,33.691,50.293,-9.766
1607281244.260,30.762,29.785,35.156,25.391,28.809
1607281244.264,31.250,34.180,36.133,17.090,36.133
1607281244.267,48.828,32.715,31.250,36.133,-20.020
1607281244.271,56.152,32.715,30.762,53.711,-25.391
1607281244.275,39.062,36.133,34.180,30.762,-1.953
1607281244.279,32.715,37.109,35.156,14.160,28.809
1607281244.283,43.945,37.109,32.227,35.645,6.836
1607281244.287,53.223,35.156,29.785,55.176,27.344
1607281244.291,40.527,34.180,33.691,40.527,21.973
1607281244.295,23.926,32.227,31.250,13.184,-10.254
1607281244.299,30.273,26.855,27.832,13.672,44.922
1607281244.303,43.945,29.785,29.297,38.086,91.797
1607281244.307,33.691,31.738,30.762,33.203,110.840
1607281244.310,17.090,31.738,33.203,-0.977,105.957
1607281244.314,21.973,37.598,32.715,-2.930,41.016
1607281244.318,36.133,37.109,32.227,31.738,15.625
1607281244.322,32.227,33.203,33.203,42.480,21.973
1607281244.326,16.113,34.668,31.250,12.695,9.766
1607281244.330,15.137,36.133,24.414,0.000,16.602
1607281244.334,29.297,33.691,23.438,31.250,34.180
1607281244.338,42.969,33.203,32.715,53.711,49.316
1607281244.342,31.250,36.621,39.062,24.902,36.621
1607281244.346,17.090,34.668,40.039,4.395,32.227
1607281244.350,28.809,34.180,36.621,19.043,25.391
1607281244.353,45.898,35.645,34.668,43.457,1.465
1607281244.357,37.598,36.621,37.598,36.133,-31.738
1607281244.361,19.531,34.180,36.621,7.324,-26.855
1607281244.365,24.902,27.344,34.180,13.672,-27.832
1607281244.369,42.969,30.273,24.902,38.574,-14.648
1607281244.373,33.691,35.645,22.461,31.250,-25.391
1607281244.377,24.414,28.320,30.762,16.602,-13.672
1607281244.381,32.715,34.180,28.809,19.531,22.461
1607281244.385,37.598,43.457,24.902,26.855,17.090
1607281244.389,42.480,43.457,29.297,35.156,34.668
1607281244.392,22.461,44.922,24.414,7.324,83.496
1607281244.396,10.742,45.410,13.672,-13.672,68.848
1607281244.400,26.367,43.457,9.277,5.859,20.508
1607281244.404,37.598,47.852,6.836,20.508,42.969
1607281244.408,28.809,51.270,5.859,6.836,41.016
1607281244.412,16.113,47.852,8.301,-9.766,43.945
1607281244.416,27.344,45.410,10.742,8.789,62.500
1607281244.420,44.922,42.480,13.672,42.480,24.902
1607281244.424,31.738,38.574,14.648,29.297,50.781
1607281244.428,22.461,41.016,18.555,7.812,39.551
1607281244.432,40.527,43.457,21.484,20.996,-20.020
1607281244.435,52.246,39.062,15.137,36.621,-13.672
1607281244.439,43.945,35.645,17.090,35.156,-20.508
1607281244.443,28.809,35.645,24.902,16.602,-24.414
1607281244.447,23.926,39.062,23.926,10.742,10.254
1607281244.451,44.922,41.992,20.996,34.668,35.645
1607281244.455,48.828,38.086,21.484,48.340,9.766
1607281244.459,25.391,40.527,21.973,20.020,20.996
1607281244.463,22.949,41.992,22.461,-0.488,21.484
1607281244.467,39.551,37.109,22.949,20.020,-24.414
1607281244.471,51.270,36.621,20.996,43.945,7.812
1607281244.475,40.527,39.062,22.461,22.949,28.809
1607281244.478,30.762,40.039,24.414,2.441,-20.508
1607281244.482,37.109,37.598,21.484,18.066,7.812
1607281244.486,47.363,34.668,19.531,42.480,42.480
1607281244.490,43.945,34.668,22.461,37.598,36.133
1607281244.494,27.344,33.691,21.973,12.695,48.828
1607281244.498,25.391,29.785,21.973,11.719,-2.930
1607281244.502,43.945,30.273,23.926,38.574,15.625
1607281244.506,48.828,35.156,27.832,44.434,36.621
1607281244.510,23.438,39.062,28.809,8.789,65.430
1607281244.514,20.020,39.551,26.855,-1.953,125.977
1607281244.517,42.480,32.227,27.832,28.320,81.055
1607281244.521,47.852,31.250,25.879,42.480,54.199
1607281244.525,29.297,38.574,26.855,18.066,53.223
1607281244.529,22.461,40.527,27.832,0.488,99.121
1607281244.533,36.133,41.016,29.297,18.066,88.867
1607281244.537,39.551,35.645,25.879,40.039,43.457
1607281244.541,22.461,28.320,25.879,22.949,3.418
1607281244.545,13.184,29.785,25.391,0.000,-11.719
1607281244.549,19.531,32.227,21.973,6.836,60.059
1607281244.553,34.668,30.273,22.949,38.574,52.734
1607281244.557,24.902,30.273,23.438,37.598,66.406
1607281244.560,8.789,31.738,27.832,8.789,45.410
1607281244.564,17.578,29.785,30.273,3.906,-0.977
1607281244.568,36.133,24.414,30.273,33.691,63.965
1607281244.572,38.574,21.484,31.738,46.387,73.730
1607281244.576,22.949,27.832,26.367,14.160,24.414
1607281244.580,20.508,38.086,19.043,-8.301,14.160
1607281244.584,39.062,41.992,15.625,8.789,-0.977
1607281244.588,46.875,42.480,13.672,23.438,16.113
1607281244.592,26.855,46.875,13.184,0.977,18.066
1607281244.596,19.531,52.246,11.230,-10.254,2.441
1607281244.600,31.250,54.199,8.789,2.441,-30.273
1607281244.603,41.992,51.270,6.348,22.461,-7.324
1607281244.607,36.621,50.781,7.812,15.625,-14.160
1607281244.611,26.367,45.410,15.625,-6.348,-44.434
1607281244.615,29.297,43.457,16.113,4.395,26.367
1607281244.619,42.480,46.387,15.137,35.645,41.504
1607281244.623,37.109,43.457,19.043,33.203,41.992
1607281244.627,17.578,41.016,11.230,5.371,69.336
1607281244.631,16.113,38.086,5.371,3.418,14.648
1607281244.635,36.133,40.527,15.137,31.250,1.953
1607281244.639,46.387,43.457,28.809,46.875,39.062
1607281244.642,27.832,40.039,31.738,21.973,31.250
1607281244.646,17.578,35.156,25.391,3.418,12.207
1607281244.650,31.250,36.621,21.973,23.926,-37.598
1607281244.654,40.039,38.086,21.484,43.945,11.719
1607281244.658,30.762,32.715,22.461,21.484,49.316
1607281244.662,28.809,33.691,21.484,5.371,31.738
1607281244.666,40.527,38.086,20.996,16.113,46.875
1607281244.670,52.734,37.109,19.043,36.621,26.855
1607281244.674,47.363,37.598,22.949,34.668,21.973
1607281244.678,33.691,35.645,25.879,13.672,41.016
1607281244.682,36.621,33.203,19.531,14.160,-4.395
1607281244.685,49.316,33.691,20.020,43.945,0.977
1607281244.689,44.922,35.156,31.738,45.410,53.223
1607281244.693,30.273,37.109,36.133,8.301,12.207
1607281244.697,30.762,37.598,33.691,1.953,14.648
1607281244.701,48.828,38.574,30.762,28.809,21.484
1607281244.705,48.828,36.133,30.762,40.039,42.969
1607281244.709,21.973,28.809,32.715,15.137,83.496
1607281244.713,17.090,35.156,32.227,3.418,55.176
1607281244.717,32.227,42.480,29.785,25.879,27.344
1607281244.721,35.156,38.574,30.273,46.875,54.199
1607281244.725,22.949,37.109,31.738,35.156,20.508
1607281244.728,21.484,38.086,30.762,19.531,-46.875
1607281244.732,33.691,36.133,31.250,20.996,1.465
1607281244.736,48.828,32.715,29.297,30.273,52.246
1607281244.740,41.016,32.227,26.855,20.996,65.918
1607281244.744,28.320,33.691,30.762,-0.977,22.461
1607281244.748,37.598,30.762,33.203,4.883,-0.488
1607281244.752,56.152,33.203,34.180,37.109,39.062
1607281244.756,55.664,39.551,36.133,44.922,74.707
1607281244.760,28.809,32.715,30.762,16.113,105.469
1607281244.764,20.996,26.855,26.367,3.906,74.219
1607281244.767,42.969,24.414,28.320,27.344,24.414
1607281244.771,49.805,21.484,27.832,43.457,26.855
1607281244.775,25.879,24.414,28.809,24.902,-27.344
1607281244.779,19.531,31.250,30.273,8.789,-2.441
1607281244.783,35.156,38.086,29.297,27.344,39.551
1607281244.787,45.898,38.086,31.250,45.898,21.973
1607281244.791,34.668,36.621,32.715,21.484,17.090
1607281244.795,19.043,36.133,31.738,1.465,12.207
1607281244.799,31.738,34.180,33.203,20.020,-22.949
1607281244.803,52.246,37.109,33.203,43.945,-7.324
1607281244.807,48.340,36.621,37.598,36.133,23.926
1607281244.810,33.203,33.691,41.016,15.625,-9.277
1607281244.814,33.203,35.645,37.109,19.043,22.461
1607281244.818,46.387,35.156,35.645,41.992,34.180
1607281244.822,48.340,34.180,32.715,42.480,21.484
1607281244.826,33.203,32.227,36.133,13.672,27.344
1607281244.830,31.250,28.320,34.668,2.930,26.855
1607281244.834,41.992,29.297,27.344,20.508,21.484
1607281244.838,43.945,32.715,29.785,34.668,0.488
1607281244.842,34.668,34.668,33.203,16.602,34.668
1607281244.846,26.855,31.738,34.668,0.488,25.879
1607281244.850,25.879,28.809,31.250,10.254,-36.133
1607281244.853,38.086,25.879,28.320,36.133,20.508
1607281244.857,34.180,24.414,29.297,28.809,11.719
1607281244.861,25.391,28.809,30.762,10.254,-23.926
1607281244.865,24.902,24.902,34.180,17.090,35.645
1607281244.869,34.180,20.020,31.738,41.992,36.133
1607281244.873,34.668,23.438,31.250,38.574,-30.762
1607281244.877,20.020,24.414,36.133,9.277,13.184
1607281244.881,15.137,26.855,31.738,4.883,73.242
1607281244.885,26.367,26.855,25.391,30.762,44.922
1607281244.889,32.715,24.414,26.855,39.062,1.465
1607281244.892,16.602,25.879,24.902,8.789,50.781
1607281244.896,6.836,20.508,22.949,-6.348,59.570
1607281244.900,17.578,19.043,20.020,11.719,33.203
1607281244.904,26.367,20.996,25.879,31.738,51.758
1607281244.908,16.113,23.926,38.086,17.578,-7.812
1607281244.912,12.695,31.738,38.086,0.000,-1.953
1607281244.916,29.297,29.297,34.668,9.766,51.270
1607281244.920,38.574,29.785,32.227,33.691,32.715
1607281244.924,26.367,32.227,29.297,24.414,30.762
1607281244.928,12.207,26.367,28.320,-4.395,11.719
1607281244.932,19.531,22.461,29.297,3.906,22.949
1607281244.935,38.574,27.832,34.668,38.574,44.434
1607281244.939,29.785,32.227,33.203,37.598,20.996
1607281244.943,7.324,29.785,30.273,3.418,78.613
1607281244.947,6.348,32.227,27.832,-12.207,54.688
1607281244.951,28.320,34.668,25.391,22.949,0.977
1607281244.955,34.668,32.227,29.785,38.574,60.059
1607281244.959,17.090,32.227,28.809,5.859,105.469
1607281244.963,13.184,33.203,27.832,-8.789,86.426
1607281244.967,35.645,34.180,31.250,17.578,-6.348
1607281244.971,41.992,30.762,29.785,32.227,24.414
1607281244.975,20.996,30.762,25.879,13.184,83.496
1607281244.978,24.414,37.598,32.715,8.789,28.809
1607281244.982,34.668,35.645,34.668,18.555,24.902
1607281244.986,39.551,30.762,30.762,36.133,70.801
1607281244.990,30.762,31.250,34.668,35.156,38.574
1607281244.994,16.113,28.809,30.273,6.348,-8.789
1607281244.998,22.461,31.738,31.250,5.371,50.781
1607281245.002,35.156,32.715,32.715,35.156,83.496
1607281245.006,23.438,28.809,25.391,33.691,27.832
1607281245.010,5.859,33.691,26.367,2.930,20.996
1607281245.014,9.766,33.691,28.809,-4.395,29.297
1607281245.017,20.996,30.762,28.809,16.602,-1.465
1607281245.021,22.461,30.762,19.531,26.367,-0.977
1607281245.025,14.648,25.879,17.090,4.395,26.367
1607281245.029,19.531,28.320,27.344,-10.254,42.480
1607281245.033,29.785,35.645,28.320,5.859,-4.395
1607281245.037,33.203,33.203,29.297,29.297,9.277
1607281245.041,23.438,35.645,35.645,17.090,91.309
1607281245.045,12.695,36.621,34.668,-2.930,70.312
1607281245.049,23.438,35.156,35.156,5.859,6.348
1607281245.053,38.574,36.133,31.738,36.133,22.461
1607281245.057,26.855,34.180,28.320,35.156,54.688
1607281245.060,22.461,35.645,28.809,3.906,54.199
1607281245.064,48.340,41.016,23.438,11.719,-13.184
1607281245.068,72.266,37.598,24.414,53.711,33.203
1607281245.072,45.410,29.785,33.203,43.457,29.785
1607281245.076,11.230,24.902,40.527,-8.301,-3.906
1607281245.080,14.648,21.484,39.062,-11.230,21.973
1607281245.084,31.250,20.508,35.156,24.414,17.090
1607281245.088,33.203,19.531,47.363,41.016,27.344
1607281245.092,16.113,15.137,48.340,17.578,19.043
1607281245.096,-6.836,8.789,36.621,-9.766,36.133
1607281245.100,2.930,7.812,42.969,8.789,66.895
1607281245.103,18.555,10.254,46.875,39.062,72.266
1607281245.107,13.672,12.207,47.363,30.273,25.879
1607281245.111,8.301,8.301,45.898,7.812,-21.973
1607281245.115,18.555,9.766,41.016,17.090,-27.344
1607281245.119,28.809,13.184,39.551,38.574,0.000
1607281245.123,24.414,14.160,39.551,30.273,34.180
1607281245.127,20.996,16.113,42.969,7.812,-15.625
1607281245.131,21.973,15.137,42.480,12.207,-77.637
1607281245.135,33.203,15.625,36.133,44.922,-10.742
1607281245.139,37.109,19.531,36.621,47.363,60.059
1607281245.142,21.484,20.020,38.086,23.926,17.578
1607281245.146,22.461,24.414,42.480,26.367,2.930
1607281245.150,39.062,29.297,40.527,46.875,2.930
1607281245.154,34.180,16.602,33.691,43.457,1.953
1607281245.158,20.020,14.648,30.762,18.555,33.691
1607281245.162,27.344,20.508,26.855,14.160,19.531
1607281245.166,38.086,21.484,29.297,29.297,-43.457
1607281245.170,42.969,20.508,26.367,48.828,19.531
1607281245.174,40.039,20.020,29.297,36.133,80.078
1607281245.178,33.203,22.461,36.133,18.066,37.109
1607281245.182,41.504,23.926,36.621,27.832,41.504
1607281245.185,54.199,23.926,36.621,47.363,62.988
1607281245.189,44.922,26.367,35.645,45.898,-17.578
1607281245.193,31.738,29.785,37.109,20.508,-29.297
1607281245.197,37.598,31.250,31.738,12.695,26.367
1607281245.201,51.270,30.762,37.109,39.062,76.172
1607281245.205,51.270,29.297,41.992,54.199,57.617
1607281245.209,43.457,32.715,32.715,36.621,-13.672
1607281245.213,37.598,35.645,35.156,22.949,-49.316
1607281245.217,46.387,32.715,34.180,44.922,28.320
1607281245.221,55.664,32.715,30.762,60.059,126.953
1607281245.225,45.410,32.715,35.645,39.062,60.547
1607281245.228,35.156,33.203,38.574,22.461,-20.996
1607281245.232,37.109,30.762,33.691,22.461,22.461
1607281245.236,44.922,24.414,33.691,39.062,96.680
1607281245.240,37.109,20.508,30.762,38.086,86.914
1607281245.244,20.996,23.926,29.785,12.207,61.523
1607281245.248,21.973,26.855,31.738,16.602,-4.395
1607281245.252,34.668,27.832,30.273,44.922,-15.137
1607281245.256,26.367,24.902,32.715,49.805,1.465
1607281245.260,14.648,20.508,37.109,28.320,-11.230
1607281245.264,21.973,20.996,40.039,22.461,-31.250
1607281245.267,30.273,20.020,36.621,32.715,-17.090
1607281245.271,35.645,19.531,34.180,42.480,32.715
1607281245.275,25.879,27.344,38.574,23.926,22.461
1607281245.279,26.367,35.645,46.875,14.160,-19.043
1607281245.283,33.203,23.438,43.457,19.043,40.527
1607281245.287,31.250,14.160,28.809,27.832,35.156
1607281245.291,27.832,21.973,26.367,14.160,23.438
1607281245.295,25.391,26.367,26.855,-6.348,20.996
1607281245.299,29.297,24.414,26.367,10.742,-25.879
1607281245.303,41.992,24.414,26.855,41.992,71.289
1607281245.307,32.715,25.391,34.668,34.668,114.258
1607281245.310,19.043,25.879,39.062,19.531,44.434
1607281245.314,33.203,27.832,31.250,32.715,27.344
1607281245.318,44.922,30.273,32.227,51.758,44.922
1607281245.322,34.668,28.809,33.203,42.480,17.578
1607281245.326,24.414,22.949,35.156,20.020,42.480
1607281245.330,31.250,23.926,37.109,15.625,16.602
1607281245.334,37.109,22.949,38.574,26.367,-11.230
1607281245.338,31.738,23.438,33.203,35.156,57.617
1607281245.342,17.578,20.508,31.250,24.414,69.336
1607281245.346,16.113,16.602,34.180,9.277,61.523
1607281245.350,30.273,22.461,34.180,17.578,53.223
1607281245.353,38.574,27.344,32.227,43.457,33.203
1607281245.357,21.973,27.344,32.227,29.297,74.707
1607281245.361,17.090,28.320,34.668,13.672,81.543
1607281245.365,28.320,29.785,33.691,27.344,-18.555
1607281245.369,27.832,26.855,27.832,40.527,-59.570
1607281245.373,23.438,27.344,27.832,38.086,0.977
1607281245.377,8.789,29.297,28.809,22.949,26.855
1607281245.381,15.625,24.414,27.344,21.973,9.766
1607281245.385,40.039,24.902,26.367,46.875,8.789
1607281245.389,38.086,33.203,25.391,48.828,59.082
1607281245.392,17.578,36.621,27.344,14.160,20.996
1607281245.396,22.949,39.062,25.879,5.371,-10.254
1607281245.400,43.945,37.109,24.902,23.438,48.828
1607281245.404,46.875,29.297,28.809,38.086,51.758
1607281245.408,29.785,33.691,29.785,17.090,66.406
1607281245.412,21.973,32.715,26.367,-0.488,99.121
1607281245.416,30.762,22.949,30.273,10.254,44.922
1607281245.420,41.016,24.414,33.203,33.691,18.555
1607281245.424,31.250,26.367,32.227,29.297,0.488
1607281245.428,17.578,26.367,38.574,4.883,14.160
1607281245.432,21.484,25.879,38.574,1.465,28.320
1607281245.435,25.879,19.531,27.344,23.926,8.301
1607281245.439,21.484,22.461,26.855,26.367,26.367
1607281245.443,19.531,29.297,30.762,6.348,-49.805
1607281245.447,25.879,33.691,31.250,10.254,-82.520
1607281245.451,32.227,26.855,22.949,19.531,-12.695
1607281245.455,28.809,21.484,20.996,18.066,32.715
1607281245.459,11.230,27.344,24.414,-0.488,75.195
1607281245.463,7.324,28.809,24.902,-4.395,55.664
1607281245.467,20.996,30.273,25.879,17.090,36.621
1607281245.471,27.344,29.785,26.367,35.645,-6.836
1607281245.475,19.531,28.809,29.297,26.367,6.348
1607281245.478,14.160,26.367,25.391,4.883,83.984
1607281245.482,30.762,23.926,28.809,13.184,12.207
1607281245.486,53.223,27.344,29.785,38.574,-43.945
1607281245.490,32.227,22.461,25.391,24.902,-2.930
1607281245.494,15.625,22.461,27.344,2.930,70.312
1607281245.498,31.738,27.832,24.414,12.695,71.777
1607281245.502,41.992,29.297,25.391,28.320,32.715
1607281245.506,36.621,32.227,26.367,26.367,61.523
1607281245.510,24.414,32.227,26.367,7.812,83.008
1607281245.514,21.973,26.367,26.367,3.906,62.988
1607281245.517,41.504,31.250,33.203,31.738,59.570
1607281245.521,43.945,36.621,40.527,42.480,45.410
1607281245.525,13.672,31.250,30.762,12.207,52.246
1607281245.529,8.789,28.320,26.855,1.465,71.777
1607281245.533,26.855,27.832,26.855,20.508,47.852
1607281245.537,35.156,29.297,28.809,41.504,71.777
1607281245.541,20.020,29.297,31.250,27.344,88.867
1607281245.545,15.625,28.809,27.832,13.672,79.590
1607281245.549,32.715,29.785,32.715,25.391,50.293
1607281245.553,55.664,37.109,39.062,48.828,-17.578
1607281245.557,48.828,37.109,35.645,40.527,-6.348
1607281245.560,29.297,30.273,28.320,9.766,51.270
1607281245.564,28.320,30.762,26.855,12.207,21.484
1607281245.568,42.480,34.668,30.762,38.574,27.344
1607281245.572,49.805,39.551,26.367,42.969,73.242
1607281245.576,43.945,42.480,29.785,24.414,17.090
1607281245.580,33.691,38.086,30.273,14.648,24.902
1607281245.584,34.180,31.250,22.461,26.367,55.176
1607281245.588,44.922,33.691,25.879,41.992,24.902
1607281245.592,32.227,35.645,27.832,24.414,40.039
1607281245.596,23.438,34.180,27.344,8.789,34.668
1607281245.600,31.250,32.715,31.250,18.066,0.977
1607281245.603,38.574,33.203,32.227,36.621,24.902
1607281245.607,35.156,33.691,32.715,23.926,80.566
1607281245.611,21.973,30.273,34.180,0.488,53.711
1607281245.615,44.922,31.738,33.203,24.902,-6.836
1607281245.619,77.148,37.109,28.320,67.871,53.711
1607281245.623,51.758,34.180,29.297,51.270,71.777
1607281245.627,18.555,24.902,35.645,8.301,35.156
1607281245.631,26.855,21.484,35.645,6.348,-22.949
1607281245.635,40.527,16.602,35.156,35.156,-11.230
1607281245.639,34.668,10.742,38.086,42.480,19.531
1607281245.642,22.949,10.742,38.574,17.578,25.391
1607281245.646,20.996,9.766,40.039,9.766,65.430
1607281245.650,39.551,10.254,41.016,36.133,26.855
1607281245.654,49.805,12.207,37.598,48.828,23.438
1607281245.658,31.250,12.207,35.645,27.344,27.832
1607281245.662,28.320,14.160,36.133,12.207,-26.855
1607281245.666,42.969,15.625,39.062,25.391,-8.789
1607281245.670,53.223,17.090,38.574,51.270,31.738
1607281245.674,43.457,19.043,36.621,42.480,-28.809
1607281245.678,32.715,17.578,31.738,17.090,4.883
1607281245.682,34.180,16.113,30.273,26.367,55.664
1607281245.685,41.504,16.602,33.691,49.805,9.277
1607281245.689,42.480,18.555,34.668,46.387,0.488
1607281245.693,32.227,18.066,35.156,24.902,42.969
1607281245.697,30.762,21.973,35.645,23.926,8.789
1607281245.701,43.457,24.902,35.156,44.434,-39.062
1607281245.705,44.922,25.879,37.598,55.176,1.465
1607281245.709,31.250,24.902,38.574,39.551,41.504
1607281245.713,24.414,22.461,36.621,26.855,-5.371
1607281245.717,41.016,24.902,33.691,39.551,31.738
1607281245.721,45.898,25.879,29.785,51.270,54.688
1607281245.725,34.668,29.297,37.109,39.062,31.250
1607281245.728,32.715,30.762,39.062,24.414,35.645
1607281245.732,36.133,25.391,28.320,31.738,14.648
1607281245.736,44.434,25.391,26.855,49.316,26.855
1607281245.740,31.738,25.879,32.227,35.645,65.918
1607281245.744,20.508,27.344,32.715,18.066,54.688
1607281245.748,24.902,25.391,30.273,24.414,21.973
1607281245.752,34.180,23.438,29.785,40.039,21.484
1607281245.756,32.715,27.344,31.250,36.621,21.484
1607281245.760,24.902,25.879,32.715,17.090,6.348
1607281245.764,24.414,21.484,32.227,9.277,41.992
1607281245.767,38.574,26.855,32.715,28.809,69.824
1607281245.771,41.504,36.133,34.180,37.598,70.801
1607281245.775,16.113,33.203,23.926,5.859,83.008
1607281245.779,13.184,32.227,22.949,-4.883,38.574
1607281245.783,24.414,29.785,27.344,13.184,15.137
1607281245.787,26.367,26.855,26.367,35.156,19.531
1607281245.791,18.066,31.738,27.344,26.855,-26.367
1607281245.795,12.207,34.180,27.832,3.906,18.555
1607281245.799,20.020,32.227,30.273,12.207,51.758
1607281245.803,31.738,28.320,29.785,41.504,13.672
1607281245.807,25.879,28.320,28.809,36.133,40.527
1607281245.810,19.043,33.691,30.762,17.578,55.176
1607281245.814,22.949,30.762,28.320,17.578,-0.977
1607281245.818,41.016,32.715,32.227,37.598,-1.465
1607281245.822,42.480,40.039,35.156,37.109,41.016
1607281245.826,20.508,36.621,26.367,3.418,13.184
1607281245.830,21.484,30.762,24.902,-0.488,17.578
1607281245.834,31.738,33.691,29.785,20.508,46.387
1607281245.838,39.062,36.621,33.691,37.109,27.832
1607281245.842,27.344,33.203,36.621,18.066,13.672
1607281245.846,20.508,34.180,32.715,5.371,33.691
1607281245.850,32.715,33.203,32.227,25.391,43.945
1607281245.853,39.551,28.809,34.668,39.062,59.570
1607281245.857,36.621,34.180,34.180,25.391,50.781
1607281245.861,25.391,37.109,35.156,2.930,5.371
1607281245.865,21.484,33.203,28.320,6.348,-23.926
1607281245.869,30.273,33.203,27.344,32.227,-13.184
1607281245.873,24.902,31.738,33.691,29.785,34.668
1607281245.877,19.531,31.250,34.668,12.207,51.270
1607281245.881,24.414,28.809,33.691,11.230,66.406
1607281245.885,32.715,28.809,35.645,32.227,12.207
1607281245.889,31.250,31.250,35.156,35.645,20.996
1607281245.892,22.461,34.180,34.668,12.695,55.176
1607281245.896,20.508,34.180,33.691,9.766,11.719
1607281245.900,32.227,35.645,30.273,26.855,6.348
1607281245.904,41.504,35.156,30.273,39.062,6.836
1607281245.908,26.367,32.715,30.762,19.531,31.250
1607281245.912,20.508,33.691,30.273,8.301,26.855
1607281245.916,35.645,38.574,31.738,29.297,8.301
1607281245.920,42.480,37.109,26.367,44.434,39.551
1607281245.924,23.926,29.785,21.973,25.879,16.602
1607281245.928,11.719,28.809,24.414,3.418,-8.301
1607281245.932,19.531,29.297,24.902,9.766,25.879
1607281245.935,30.273,27.344,27.832,30.762,95.215
1607281245.939,20.020,24.902,29.785,25.391,85.938
1607281245.943,12.695,28.320,31.250,10.254,86.426
1607281245.947,17.090,31.250,33.203,11.230,92.773
1607281245.951,29.785,30.273,33.691,32.227,15.625
1607281245.955,34.180,30.762,33.203,40.039,11.230
1607281245.959,21.484,35.156,32.715,21.973,-15.625
1607281245.963,17.090,34.668,32.227,2.930,-41.504
1607281245.967,31.738,37.109,29.785,10.254,24.414
1607281245.971,43.457,41.016,30.762,30.273,49.805
1607281245.975,33.203,41.992,35.156,12.207,28.320
1607281245.978,17.090,34.180,26.367,-7.324,16.602
1607281245.982,16.602,24.414,22.461,5.371,28.809
1607281245.986,29.785,25.391,27.832,25.879,29.297
1607281245.990,20.020,30.273,28.809,11.230,43.457
1607281245.994,7.812,31.738,28.320,-4.395,48.340
1607281245.998,18.066,29.297,27.832,2.441,55.664
1607281246.002,34.180,32.227,25.879,25.879,105.957
1607281246.006,34.180,32.715,27.344,29.297,66.406
1607281246.010,16.113,28.320,28.320,0.977,18.066
1607281246.014,14.160,30.762,27.344,-2.930,55.664
1607281246.017,35.156,32.715,28.809,27.832,30.273
1607281246.021,32.227,33.203,26.855,39.062,43.945
1607281246.025,20.996,36.133,30.762,18.555,74.219
1607281246.029,26.855,35.156,30.762,6.836,48.340
1607281246.033,23.926,24.902,20.996,19.531,44.434
1607281246.037,26.367,23.438,19.531,33.203,37.598
1607281246.041,17.578,24.902,21.484,13.184,41.504
1607281246.045,6.348,23.926,22.949,-2.930,4.395
1607281246.049,18.066,25.879,24.902,16.602,-19.531
1607281246.053,34.668,28.809,23.926,38.574,-17.578
1607281246.057,32.715,29.785,25.391,30.273,-41.016
1607281246.060,19.531,28.320,28.809,11.230,5.371
1607281246.064,25.879,26.367,30.762,14.160,-1.465
1607281246.068,39.062,25.391,32.715,34.668,0.977
1607281246.072,31.738,28.809,33.203,30.762,32.227
1607281246.076,19.531,32.227,32.715,10.254,0.000
1607281246.080,19.043,31.738,29.297,6.348,-10.254
1607281246.084,30.273,32.715,29.785,26.855,-0.977
1607281246.088,36.621,31.250,33.691,40.527,-28.320
1607281246.092,25.391,27.832,30.762,16.113,-3.906
1607281246.096,27.344,38.574,35.156,8.789,24.902
1607281246.100,37.598,42.480,35.645,26.367,17.578
1607281246.103,34.180,33.203,24.902,28.809,2.930
1607281246.107,24.414,34.668,23.926,13.184,-0.977
1607281246.111,19.531,33.691,26.855,0.488,-25.879
1607281246.115,24.902,30.762,27.832,8.789,-15.137
1607281246.119,31.738,29.297,27.832,25.391,29.297
1607281246.123,25.879,29.297,28.809,20.020,19.043
1607281246.127,16.113,33.203,28.320,1.953,-9.766
1607281246.131,21.484,33.203,28.809,7.324,55.176
1607281246.135,34.668,31.250,29.297,26.855,108.887
1607281246.139,32.227,30.273,32.227,28.320,92.773
1607281246.142,16.602,27.344,32.715,7.812,18.066
1607281246.146,17.090,26.855,30.273,3.906,15.625
1607281246.150,34.668,29.785,32.227,24.902,55.176
1607281246.154,38.086,30.762,35.645,34.668,23.438
1607281246.158,25.879,29.297,33.691,16.113,20.996
1607281246.162,20.020,29.297,30.762,8.301,62.988
1607281246.166,31.250,34.180,34.180,25.391,74.707
1607281246.170,44.434,34.668,36.621,45.410,42.480
1607281246.174,31.250,29.785,31.250,26.855,36.133
1607281246.178,20.020,31.250,27.344,7.812,40.527
1607281246.182,23.438,29.785,27.344,18.555,36.621
1607281246.185,33.203,27.832,29.785,38.086,56.641
1607281246.189,28.809,30.762,31.250,32.227,38.574
1607281246.193,20.508,31.250,28.809,8.789,18.066
1607281246.197,25.879,28.320,27.344,9.277,20.020
1607281246.201,39.551,27.344,28.320,34.668,46.387
1607281246.205,39.062,28.809,30.273,41.016,54.199
1607281246.209,24.902,26.367,29.785,16.113,19.043
1607281246.213,23.438,25.879,28.320,6.836,-2.930
1607281246.217,35.156,28.809,29.297,20.996,46.387
1607281246.221,41.992,33.691,29.297,30.273,65.430
1607281246.225,31.250,37.109,28.809,15.137,-18.555
1607281246.228,20.996,33.691,31.738,4.395,-13.184
1607281246.232,28.809,30.762,31.250,16.602,47.852
1607281246.236,49.316,38.574,32.227,44.434,61.035
1607281246.240,32.227,38.086,34.668,39.062,29.785
1607281246.244,15.625,29.785,27.344,10.742,27.832
1607281246.248,29.297,31.250,22.461,22.461,48.340
1607281246.252,37.598,35.645,24.414,34.668,45.898
1607281246.256,32.227,34.180,26.367,21.973,74.707
1607281246.260,15.137,31.738,23.926,-2.441,38.086
1607281246.264,22.461,33.691,23.926,-0.977,26.367
1607281246.267,43.457,34.668,27.344,31.250,31.250
1607281246.271,43.457,34.180,28.320,36.621,10.254
1607281246.275,24.902,33.691,30.762,15.625,-8.301
1607281246.279,21.973,33.203,32.715,9.277,-45.410
1607281246.283,33.691,34.668,31.738,25.879,32.227
1607281246.287,39.551,34.668,32.227,38.574,57.617
1607281246.291,27.344,30.762,32.227,19.043,-39.551
1607281246.295,25.879,30.762,30.273,5.371,-8.789
1607281246.299,42.969,38.086,34.180,20.996,30.762
1607281246.303,49.316,36.133,37.109,37.109,-16.602
1607281246.307,34.668,31.738,32.227,20.996,30.273
1607281246.310,21.973,31.250,29.297,1.953,-8.789
1607281246.314,25.879,27.832,29.785,11.719,-64.941
1607281246.318,42.480,30.273,30.273,37.109,-1.953
1607281246.322,41.992,33.203,29.785,41.992,28.320
1607281246.326,26.367,32.227,29.785,23.926,21.973
1607281246.330,27.832,32.715,28.320,21.484,38.086
1607281246.334,41.016,34.668,31.738,41.992,55.664
1607281246.338,36.621,32.715,31.738,41.016,59.082
1607281246.342,25.879,31.738,30.273,18.066,-7.812
1607281246.346,24.902,34.180,32.227,2.441,-32.227
1607281246.350,33.203,33.691,33.203,14.648,-10.254
1607281246.353,43.945,31.250,30.762,35.645,-6.348
1607281246.357,27.832,28.809,31.738,19.043,-2.441
1607281246.361,19.043,28.809,38.086,5.859,15.625
1607281246.365,36.621,33.691,39.551,16.113,36.133
1607281246.369,35.156,28.809,30.273,27.344,22.949
1607281246.373,21.484,26.367,28.809,18.066,72.754
1607281246.377,12.207,26.855,27.344,4.395,30.273
1607281246.381,20.508,27.832,26.855,13.184,-9.277
1607281246.385,37.109,30.762,30.762,37.109,81.543
1607281246.389,35.645,31.738,29.297,38.574,88.379
1607281246.392,26.367,32.715,29.297,17.090,4.395
1607281246.396,25.879,30.762,26.855,4.883,-29.297
1607281246.400,36.621,30.273,25.879,15.137,-7.324
1607281246.404,42.969,31.250,25.879,25.391,13.184
1607281246.408,32.715,34.180,24.902,4.883,11.230
1607281246.412,25.391,35.156,25.879,-4.395,0.977
1607281246.416,35.156,32.227,26.855,16.113,26.855
1607281246.420,44.434,31.738,30.762,41.016,19.531
1607281246.424,32.227,36.621,36.621,31.738,37.598
1607281246.428,23.926,37.109,30.762,10.742,81.543
1607281246.432,25.391,34.180,21.973,14.160,-12.695
1607281246.435,35.156,33.691,23.926,32.227,25.879
1607281246.439,33.691,37.109,25.879,30.762,75.195
1607281246.443,19.531,35.645,24.902,12.207,32.715
1607281246.447,18.066,27.832,26.855,6.348,73.730
1607281246.451,27.344,31.250,28.320,29.785,68.359
1607281246.455,30.762,36.133,29.785,40.039,14.160
1607281246.459,27.832,33.691,29.785,16.113,43.457
1607281246.463,20.996,34.180,28.320,2.441,24.902
1607281246.467,26.367,31.738,30.273,18.066,9.277
1607281246.471,33.203,27.832,32.227,26.367,39.551
1607281246.475,21.484,27.344,34.668,11.230,5.859
1607281246.478,20.996,28.320,33.691,6.836,26.367
1607281246.482,37.109,24.414,30.762,15.625,35.156
1607281246.486,48.340,26.855,37.598,41.992,45.898
1607281246.490,36.133,32.227,40.039,37.109,32.715
1607281246.494,18.555,23.438,33.203,9.766,5.859
1607281246.498,25.391,21.484,28.320,16.113,26.367
1607281246.502,38.574,24.902,28.320,38.086,20.996
1607281246.506,33.203,27.344,32.715,36.621,-22.949
1607281246.510,23.438,30.762,32.227,20.508,-47.363
1607281246.514,24.902,31.738,29.785,19.043,12.695
1607281246.517,36.133,31.250,28.320,35.645,11.719
1607281246.521,39.062,29.785,29.297,41.504,2.930
1607281246.525,27.344,29.297,29.297,20.996,76.660
1607281246.529,26.367,30.762,28.320,12.207,53.711
1607281246.533,40.039,32.227,31.250,24.902,33.203
1607281246.537,47.363,34.180,33.203,36.621,34.180
1607281246.541,25.879,35.156,29.785,8.789,26.367
1607281246.545,17.090,34.668,28.809,-8.301,21.484
1607281246.549,31.250,33.203,29.297,12.695,10.742
1607281246.553,42.480,33.691,34.180,32.227,-21.484
1607281246.557,33.691,31.738,35.156,22.461,-25.391
1607281246.560,9.766,24.414,26.855,-0.488,10.254
1607281246.564,15.625,26.367,23.438,4.395,21.973
1607281246.568,40.039,33.203,25.879,33.203,38.086
1607281246.572,33.203,34.668,27.344,32.715,92.773
1607281246.576,19.043,33.203,26.367,8.301,127.930
1607281246.580,22.949,35.156,28.320,7.812,24.902
1607281246.584,36.621,33.203,31.250,28.809,-31.250
1607281246.588,42.480,34.668,31.250,33.691,0.977
1607281246.592,28.320,36.133,27.832,9.766,30.762
1607281246.596,21.484,33.691,27.344,5.371,38.574
1607281246.600,31.250,35.156,29.297,21.973,6.348
1607281246.603,44.434,33.691,26.855,37.109,38.574
1607281246.607,42.969,36.621,30.273,30.273,76.660
1607281246.611,33.691,36.133,34.180,16.602,18.066
1607281246.615,29.785,29.297,25.391,18.555,28.320
1607281246.619,37.598,27.832,25.879,37.598,41.504
1607281246.623,35.645,29.785,31.738,32.227,19.531
1607281246.627,23.926,30.762,32.715,15.137,56.641
1607281246.631,26.367,28.809,31.738,20.508,9.766
1607281246.635,36.621,31.250,29.297,39.062,3.906
1607281246.639,31.250,33.203,29.297,34.668,17.578
1607281246.642,20.508,33.691,29.297,13.672,14.648
1607281246.646,23.438,34.668,29.785,9.277,-7.324
1607281246.650,37.109,30.273,31.738,33.203,-1.953
1607281246.654,36.621,29.297,29.785,43.945,33.203
1607281246.658,20.508,29.297,29.297,15.625,41.992
1607281246.662,23.438,29.297,32.227,4.883,45.410
1607281246.666,33.691,33.203,36.133,21.484,30.273
1607281246.670,38.086,32.715,38.086,46.387,-0.488
1607281246.674,21.484,27.832,31.250,25.879,29.785
1607281246.678,7.812,27.344,29.297,-3.418,81.055
1607281246.682,21.973,26.855,30.273,8.789,65.430
1607281246.685,33.691,27.832,30.762,29.297,106.934
1607281246.689,29.785,28.809,33.203,27.344,124.023
1607281246.693,19.043,31.250,31.738,11.230,74.707
1607281246.697,24.902,31.250,32.227,12.207,6.836
1607281246.701,35.645,30.762,33.691,32.227,-23.438
1607281246.705,31.250,32.227,33.691,36.621,-34.668
1607281246.709,20.020,33.691,32.715,17.090,-15.137
1607281246.713,18.555,35.156,31.250,14.160,8.789
1607281246.717,38.086,34.180,31.738,34.180,70.312
1607281246.721,44.434,34.668,33.203,50.781,99.121
1607281246.725,28.320,35.156,33.203,29.785,79.590
1607281246.728,25.391,33.691,31.250,11.230,-0.977
1607281246.732,34.180,32.227,29.297,26.367,-13.184
1607281246.736,38.574,35.156,28.320,41.016,40.527
1607281246.740,30.762,33.203,32.715,27.344,39.551
1607281246.744,21.484,29.297,33.691,10.742,54.199
1607281246.748,28.320,28.809,32.227,18.066,46.387
1607281246.752,44.922,30.273,31.250,43.457,33.691
1607281246.756,37.598,29.785,29.297,33.691,1.953
1607281246.760,27.832,29.785,31.250,10.254,30.273
1607281246.764,33.691,34.180,35.645,17.090,71.777
1607281246.767,36.133,31.738,33.203,30.762,25.391
1607281246.771,34.668,31.738,31.738,33.691,22.461
1607281246.775,27.832,34.668,33.691,17.578,79.102
1607281246.779,19.531,31.738,33.691,1.465,85.938
1607281246.783,25.879,29.785,32.227,15.625,67.871
1607281246.787,36.621,33.203,32.227,38.574,78.125
1607281246.791,30.273,35.156,33.691,18.555,46.875
1607281246.795,22.949,35.645,31.250,-0.488,5.859
1607281246.799,23.438,33.203,30.273,16.602,-35.645
1607281246.803,32.227,30.762,31.250,36.621,-27.832
1607281246.807,28.320,34.668,30.273,24.902,-8.301
1607281246.810,19.531,32.227,28.809,5.371,-18.555
1607281246.814,21.484,26.855,29.297,8.301,38.086
1607281246.818,31.738,28.809,27.832,24.414,77.148
1607281246.822,29.785,31.738,29.785,20.996,57.617
1607281246.826,18.555,33.203,28.809,1.953,50.293
1607281246.830,24.414,31.250,27.344,1.953,12.695
1607281246.834,35.645,25.879,31.250,23.438,31.738
1607281246.838,34.180,24.414,32.227,32.227,52.246
1607281246.842,24.414,29.785,30.273,15.625,48.828
1607281246.846,17.090,26.855,30.762,8.301,34.668
1607281246.850,31.250,29.785,35.645,31.250,26.855
1607281246.853,46.387,37.109,34.668,38.574,32.227
1607281246.857,31.250,31.738,26.367,-0.977,41.504
1607281246.861,20.508,28.809,28.320,-15.137,70.801
1607281246.865,29.297,29.785,30.762,3.906,34.668
1607281246.869,42.480,29.785,29.297,18.066,22.949
1607281246.873,33.203,32.227,29.785,8.789,33.691
1607281246.877,21.973,32.227,29.297,-6.348,52.246
1607281246.881,30.273,32.227,29.297,1.953,83.496
1607281246.885,41.504,32.227,28.809,29.297,25.879
1607281246.889,35.156,30.273,32.715,34.180,-16.602
1607281246.892,19.043,28.809,32.227,11.719,48.828
1607281246.896,23.926,30.273,28.809,8.789,61.035
1607281246.900,33.691,28.809,29.297,28.809,38.574
1607281246.904,36.133,26.855,32.715,41.504,76.660
1607281246.908,19.531,27.344,35.645,25.391,67.383
1607281246.912,19.043,29.297,30.762,14.648,70.801
1607281246.916,37.109,33.203,32.227,41.504,55.176
1607281246.920,53.223,39.551,40.039,69.824,20.508
1607281246.924,41.992,37.109,34.668,45.898,55.176
1607281246.928,27.832,31.738,26.367,4.883,7.324
1607281246.932,33.691,29.785,26.855,13.184,-32.715
1607281246.935,34.180,28.320,26.855,36.133,68.848
1607281246.939,28.320,30.762,27.344,28.809,50.781
1607281246.943,19.531,31.250,29.297,8.789,-19.531
1607281246.947,20.508,29.297,26.367,5.371,30.762
1607281246.951,30.762,31.250,27.344,34.180,25.391
1607281246.955,25.879,32.715,33.203,45.898,7.812
1607281246.959,12.207,32.715,32.227,21.973,37.598
1607281246.963,14.160,31.738,30.273,11.230,69.336
1607281246.967,28.809,29.297,31.250,27.832,23.438
1607281246.971,28.320,28.809,31.738,35.156,-17.578
1607281246.975,26.367,36.133,36.621,17.578,-4.883
1607281246.978,27.344,36.133,39.551,6.348,-22.949
1607281246.982,25.879,28.809,30.762,14.648,16.113
1607281246.986,36.133,30.273,27.832,34.180,-20.508
1607281246.990,26.855,28.809,31.738,20.996,16.113
1607281246.994,23.438,31.250,32.227,4.883,26.855
1607281246.998,34.180,35.156,33.691,23.438,76.660
1607281247.002,42.480,35.156,32.715,45.898,73.730
1607281247.006,46.387,38.574,29.785,32.715,12.207
1607281247.010,34.668,39.551,29.785,12.695,40.039
1607281247.014,29.297,36.621,28.809,20.996,-45.898
1607281247.017,43.457,35.156,29.297,44.922,-41.504
1607281247.021,38.086,31.738,29.297,41.992,71.289
1607281247.025,20.996,32.715,31.738,18.066,59.570
1607281247.029,12.695,33.691,28.809,-0.977,-31.738
1607281247.033,15.137,28.809,21.973,1.953,-17.090
1607281247.037,27.832,31.738,24.414,15.625,8.789
1607281247.041,16.113,34.180,24.902,-4.883,-22.949
1607281247.045,8.301,29.785,27.344,-18.066,-17.090
1607281247.049,19.043,28.809,30.762,5.859,24.902
1607281247.053,21.484,27.832,29.785,28.809,12.695
1607281247.057,13.672,28.809,28.809,14.648,10.742
1607281247.060,10.742,32.227,28.320,-1.953,28.809
1607281247.064,20.020,29.297,26.855,6.348,-10.742
1607281247.068,37.109,29.297,29.785,31.250,-28.809
1607281247.072,30.273,30.273,31.738,29.785,37.109
1607281247.076,14.648,28.320,28.320,3.418,71.289
1607281247.080,21.484,32.227,34.668,6.348,51.270
1607281247.084,34.668,33.203,35.156,29.297,55.664
1607281247.088,31.738,29.785,25.879,32.715,76.660
1607281247.092,19.531,29.297,28.320,11.719,49.805
1607281247.096,22.461,32.227,29.297,5.859,75.684
1607281247.100,35.156,38.574,29.297,27.344,102.051
1607281247.103,33.691,36.133,33.203,37.109,82.031
1607281247.107,24.414,33.691,33.691,25.391,35.645
1607281247.111,21.484,35.645,31.250,9.766,5.859
1607281247.115,26.855,30.273,33.691,13.184,63.965
1607281247.119,40.039,29.785,35.156,34.180,55.176
1607281247.123,32.227,33.691,31.738,23.926,44.434
1607281247.127,23.926,35.156,32.227,5.859,55.176
1607281247.131,34.668,36.133,34.668,16.602,11.719
1607281247.135,41.016,35.156,25.879,30.762,7.812
1607281247.139,35.645,37.109,25.391,27.832,45.410
1607281247.142,25.391,36.133,29.785,12.695,53.223
1607281247.146,22.949,34.180,27.344,9.766,33.203
1607281247.150,32.715,35.645,26.855,23.438,25.391
1607281247.154,39.551,35.156,30.273,32.227,43.945
1607281247.158,24.902,32.227,32.227,16.113,43.945
1607281247.162,20.020,31.738,34.668,11.719,10.254
1607281247.166,35.645,31.738,34.180,29.785,11.230
1607281247.170,43.457,33.203,32.715,41.504,2.441
1607281247.174,41.504,39.062,39.062,32.715,-26.855
1607281247.178,34.668,35.156,39.062,14.648,-5.859
1607281247.182,30.273,30.273,30.273,14.160,17.578
1607281247.185,40.039,34.668,28.320,34.668,18.555
1607281247.189,34.180,36.621,30.762,28.320,35.156
1607281247.193,23.926,36.621,30.762,9.277,24.902
1607281247.197,25.879,39.062,30.273,9.277,-3.418
1607281247.201,35.156,39.062,31.250,33.691,22.949
1607281247.205,39.551,37.598,33.691,41.016,48.340
1607281247.209,33.691,39.551,35.645,17.578,57.617
1607281247.213,27.832,39.062,32.715,6.348,30.273
1607281247.217,43.457,39.551,37.109,30.273,19.531
1607281247.221,48.828,37.598,35.645,41.992,54.688
1607281247.225,32.227,32.227,26.855,12.207,55.176
1607281247.228,27.832,30.273,30.762,0.977,33.691
1607281247.232,34.180,27.344,32.227,20.508,17.090
1607281247.236,43.945,28.809,31.250,36.621,71.289
1607281247.240,34.180,33.691,34.668,21.484,82.520
1607281247.244,23.926,34.668,33.691,5.859,57.617
1607281247.248,25.391,30.273,29.785,11.719,3.906
1607281247.252,38.086,33.691,34.668,40.039,28.809
1607281247.256,37.598,37.598,34.180,39.551,25.391
1607281247.260,13.672,30.762,27.344,4.395,27.832
1607281247.264,16.602,29.785,28.809,3.418,50.781
1607281247.267,31.738,29.297,31.250,28.320,22.949
1607281247.271,28.809,30.762,32.715,32.227,20.020
1607281247.275,16.113,31.738,30.762,8.789,-36.133
1607281247.279,16.602,29.785,28.320,2.930,-20.996
1607281247.283,32.715,30.273,29.297,24.902,38.086
1607281247.287,38.086,30.273,29.297,37.109,-13.184
1607281247.291,28.320,32.715,31.738,22.949,17.090
1607281247.295,24.902,32.715,34.180,8.301,30.273
1607281247.299,26.367,24.902,28.320,13.184,24.902
1607281247.303,37.598,23.926,26.855,32.227,59.082
1607281247.307,30.273,27.832,29.297,23.438,15.137
1607281247.310,15.137,29.297,27.832,6.348,-66.406
1607281247.314,27.344,27.832,27.832,15.625,-49.805
1607281247.318,45.410,27.344,30.762,35.645,-10.742
1607281247.322,40.527,30.273,27.344,31.250,-68.848
1607281247.326,23.926,28.809,25.391,9.766,7.324
1607281247.330,32.715,34.180,30.762,14.648,62.500
1607281247.334,44.434,33.203,31.250,38.574,-22.949
1607281247.338,31.250,24.902,24.414,32.227,30.762
1607281247.342,17.090,27.344,23.926,5.859,64.941
1607281247.346,13.184,27.832,26.367,-0.977,-19.043
1607281247.350,23.438,28.320,25.879,18.555,5.371
1607281247.353,34.668,29.297,24.902,32.227,36.133
1607281247.357,25.879,28.320,27.832,18.555,56.641
1607281247.361,19.531,30.762,26.367,8.789,105.957
1607281247.365,36.133,37.598,29.785,23.438,76.660
1607281247.369,47.852,39.551,31.738,41.992,65.430
1607281247.373,32.227,33.691,23.926,24.414,55.176
1607281247.377,20.020,30.762,22.949,2.930,-7.812
1607281247.381,21.484,28.809,24.902,12.695,3.418
1607281247.385,37.109,31.738,25.879,40.039,1.465
1607281247.389,34.668,32.715,32.715,40.039,-22.949
1607281247.392,26.855,33.203,35.645,20.508,-32.715
1607281247.396,32.715,36.133,32.715,21.973,39.062
1607281247.400,42.969,33.691,34.668,41.504,86.426
1607281247.404,47.852,34.180,39.062,48.340,37.598
1607281247.408,34.180,38.574,38.086,23.926,54.199
1607281247.412,24.902,36.133,32.227,10.254,62.012
1607281247.416,33.203,31.250,29.785,26.855,48.828
1607281247.420,34.668,32.715,32.715,37.598,44.434
1607281247.424,23.438,33.203,35.645,18.555,39.062
1607281247.428,20.020,30.273,33.203,-0.488,6.348
1607281247.432,25.879,30.762,31.250,8.301,-8.301
1607281247.435,40.039,33.203,35.156,37.598,36.133
1607281247.439,35.156,32.227,33.691,26.367,23.926
1607281247.443,17.578,25.391,23.926,-5.859,44.434
1607281247.447,20.020,23.438,22.949,2.930,56.152
1607281247.451,36.621,30.273,25.879,26.367,46.875
1607281247.455,34.668,31.738,28.320,30.762,72.754
1607281247.459,21.973,30.273,31.250,14.160,25.879
1607281247.463,27.832,32.715,30.273,11.719,18.066
1607281247.467,37.598,33.203,26.855,28.809,8.789
1607281247.471,36.621,33.203,29.297,34.668,27.832
1607281247.475,22.461,34.180,30.273,18.555,60.059
1607281247.478,23.438,34.668,30.273,8.789,35.645
1607281247.482,27.832,28.809,25.879,16.113,13.672
1607281247.486,33.203,27.832,25.391,29.785,10.742
1607281247.490,29.785,33.203,27.832,16.113,20.508
1607281247.494,16.113,35.645,25.879,1.465,45.410
1607281247.498,26.367,32.227,27.344,16.113,29.297
1607281247.502,41.504,29.785,27.832,35.156,6.836
1607281247.506,31.250,29.297,29.297,23.926,64.453
1607281247.510,20.996,28.320,30.273,5.859,13.184
1607281247.514,26.855,32.715,28.809,13.672,-12.207
1607281247.517,41.016,35.645,32.715,42.969,34.180
1607281247.521,34.668,32.227,31.738,39.551,46.875
1607281247.525,15.137,31.250,27.832,1.953,46.387
1607281247.529,18.066,31.250,25.391,-4.883,53.223
1607281247.533,30.762,28.809,25.391,18.555,56.152
1607281247.537,34.668,30.273,30.762,30.762,24.902
1607281247.541,25.879,32.227,31.250,11.230,57.617
1607281247.545,23.438,31.738,31.250,5.859,35.156
1607281247.549,36.133,30.273,34.180,30.273,26.367
1607281247.553,44.922,29.297,33.203,45.410,60.547
1607281247.557,37.598,33.203,35.156,30.762,78.613
1607281247.560,30.762,33.691,37.109,17.090,52.246
1607281247.564,24.414,22.461,31.250,16.602,-24.902
1607281247.568,34.180,20.020,32.715,41.992,-5.371
1607281247.572,34.180,23.438,37.109,42.480,21.973
1607281247.576,25.879,25.879,34.668,15.137,38.086
1607281247.580,33.691,30.273,34.180,17.090,70.801
1607281247.584,48.340,32.715,36.621,39.062,41.504
1607281247.588,48.828,37.109,39.551,46.875,41.016
1607281247.592,28.809,33.203,37.109,28.320,69.336
1607281247.596,18.555,28.809,28.809,11.719,72.266
1607281247.600,34.668,36.621,30.762,31.738,48.340
1607281247.603,39.551,39.551,32.715,46.875,-10.742
1607281247.607,29.297,43.945,34.180,26.367,46.387
1607281247.611,29.785,46.387,35.645,16.602,86.426
1607281247.615,33.203,45.898,35.645,26.367,47.852
1607281247.619,44.434,47.363,37.598,41.016,1.465
1607281247.623,37.109,45.410,36.621,32.715,50.781
1607281247.627,23.438,44.434,33.203,8.789,62.500
1607281247.631,32.715,46.875,35.645,17.578,-28.320
1607281247.635,38.086,42.480,36.133,39.062,-43.945
1607281247.639,28.320,38.574,28.320,24.414,42.480
1607281247.642,19.043,40.039,25.879,4.395,26.855
1607281247.646,22.949,41.016,24.414,9.766,-23.438
1607281247.650,41.504,47.363,24.902,31.250,20.996
1607281247.654,41.016,47.852,30.273,38.086,76.172
1607281247.658,21.484,45.898,30.762,19.043,42.969
1607281247.662,28.320,47.852,31.738,19.531,65.430
1607281247.666,39.062,43.945,26.855,31.738,84.473
1607281247.670,37.598,38.086,23.438,39.551,52.734
1607281247.674,29.785,39.062,29.785,25.879,14.648
1607281247.678,27.344,40.527,32.715,6.836,-18.555
1607281247.682,33.203,34.668,29.785,13.672,23.438
1607281247.685,32.715,33.691,27.344,33.691,94.727
1607281247.689,28.809,36.133,30.762,25.391,82.031
1607281247.693,18.066,33.691,32.227,0.977,20.508
1607281247.697,24.414,35.645,31.738,8.789,-15.137
1607281247.701,42.480,37.109,35.645,38.574,6.348
1607281247.705,28.809,31.250,31.738,32.227,37.598
1607281247.709,11.230,28.809,26.367,3.418,70.801
1607281247.713,20.508,28.320,29.785,6.836,80.566
1607281247.717,32.227,29.297,32.715,25.391,48.340
1607281247.721,33.203,32.227,33.203,32.227,-13.184
1607281247.725,20.996,32.227,34.180,10.254,-40.527
1607281247.728,11.719,30.762,31.250,-5.859,31.250
1607281247.732,32.715,33.691,29.785,18.555,27.832
1607281247.736,48.828,34.668,35.156,43.945,65.430
1607281247.740,25.391,26.855,31.738,23.438,35.156
1607281247.744,14.160,21.973,25.391,4.395,1.465
1607281247.748,25.391,24.414,25.879,13.184,72.266
1607281247.752,37.598,24.902,31.250,37.109,65.430
1607281247.756,37.598,24.414,32.227,33.691,53.711
1607281247.760,21.973,28.809,25.879,12.207,54.688
1607281247.764,16.602,27.344,25.879,13.672,9.277
1607281247.767,32.715,23.438,26.367,30.762,-10.742
1607281247.771,32.715,27.832,27.344,36.133,1.465
1607281247.775,16.602,28.320,26.855,11.719,28.809
1607281247.779,17.090,27.832,23.438,4.395,22.461
1607281247.783,34.180,30.762,29.297,29.785,5.859
1607281247.787,46.387,34.668,31.738,42.969,27.832
1607281247.791,26.855,31.250,25.391,15.137,29.297
1607281247.795,19.043,26.855,26.367,3.418,0.000
1607281247.799,28.809,26.367,30.273,23.926,-1.953
1607281247.803,35.156,23.926,34.668,41.992,56.641
1607281247.807,29.297,27.344,33.691,27.344,70.312
1607281247.810,20.996,29.785,29.297,10.742,-29.297
1607281247.814,25.879,28.320,30.273,17.578,16.602
1607281247.818,41.016,33.691,40.527,38.574,92.285
1607281247.822,31.738,28.809,35.156,33.691,57.617
1607281247.826,13.184,23.926,26.855,6.836,84.961
1607281247.830,16.602,27.344,30.762,4.883,80.078
1607281247.834,28.809,25.391,35.156,28.809,36.621
1607281247.838,31.738,27.344,36.133,36.133,35.645
1607281247.842,20.020,31.250,33.203,16.113,46.387
1607281247.846,21.973,32.227,33.691,11.230,-23.926
1607281247.850,34.668,33.203,35.156,27.344,-62.012
1607281247.853,40.039,38.086,36.621,40.039,19.043
1607281247.857,31.738,35.156,35.645,25.879,29.785
1607281247.861,20.996,25.879,30.273,4.883,-16.113
1607281247.865,29.297,27.832,27.832,19.043,-0.977
1607281247.869,39.551,30.273,28.320,37.109,16.602
1607281247.873,32.715,27.832,29.297,24.902,11.719
1607281247.877,21.484,25.879,31.738,2.441,50.781
1607281247.881,27.832,27.832,30.762,7.812,63.965
1607281247.885,44.922,26.367,27.832,33.691,25.391
1607281247.889,41.016,29.785,30.273,34.668,26.855
1607281247.892,29.297,31.738,27.832,16.113,-15.625
1607281247.896,33.203,33.203,31.738,19.531,-16.113
1607281247.900,37.109,31.738,35.156,37.598,55.176
1607281247.904,29.785,26.855,28.320,34.180,51.270
1607281247.908,23.926,29.785,32.715,14.648,12.695
1607281247.912,22.461,33.691,32.227,6.348,-8.301
1607281247.916,35.156,36.133,30.273,24.902,13.184
1607281247.920,40.527,37.109,31.738,39.062,25.879
1607281247.924,23.438,36.133,28.809,18.555,1.953
1607281247.928,17.090,35.645,29.297,6.836,45.410
1607281247.932,25.879,34.668,31.738,22.949,95.703
1607281247.935,39.062,33.691,33.691,38.574,116.211
1607281247.939,28.809,32.715,37.109,26.367,58.105
1607281247.943,17.090,32.715,32.715,1.953,-20.508
1607281247.947,24.414,29.785,28.320,5.859,5.371
1607281247.951,37.109,34.180,38.574,31.738,86.914
1607281247.955,31.738,35.156,37.109,29.297,144.043
1607281247.959,17.090,31.250,26.367,6.836,65.430
1607281247.963,15.137,31.250,27.344,5.371,0.000
1607281247.967,25.391,29.297,29.297,33.203,12.207
1607281247.971,33.203,30.762,29.785,46.875,23.438
1607281247.975,20.020,31.738,30.762,18.555,26.367
1607281247.978,13.672,28.809,31.738,6.348,5.859
1607281247.982,24.902,31.738,29.785,19.531,25.391
1607281247.986,34.668,33.203,30.273,33.203,37.598
1607281247.990,27.344,34.668,33.203,20.020,-6.836
1607281247.994,22.949,35.645,35.156,6.836,-15.137
1607281247.998,24.414,25.879,28.320,13.672,-23.438
1607281248.002,32.715,20.996,27.344,34.180,-24.414
1607281248.006,27.832,25.391,32.227,30.762,31.738
1607281248.010,17.090,27.832,33.691,11.230,29.297
1607281248.014,29.785,29.785,35.156,17.578,-16.602
1607281248.017,41.016,28.809,32.715,38.574,2.441
1607281248.021,35.645,30.762,34.180,36.133,-10.742
1607281248.025,24.902,36.133,36.133,16.113,-8.789
1607281248.029,24.414,34.180,31.738,11.719,10.254
1607281248.033,34.668,36.133,32.227,28.320,-24.414
1607281248.037,41.992,39.551,32.227,46.875,-21.973
1607281248.041,24.902,32.227,28.809,24.902,-0.977
1607281248.045,14.160,27.832,25.879,6.348,7.812
1607281248.049,26.855,30.273,23.438,18.066,83.984
1607281248.053,38.574,34.668,26.367,37.109,102.051
1607281248.057,25.879,35.645,28.809,22.461,52.734
1607281248.060,17.578,32.715,29.785,1.953,90.332
1607281248.064,25.391,33.691,29.297,12.207,61.035
1607281248.068,35.645,35.156,27.832,33.203,42.969
1607281248.072,41.016,41.504,33.203,34.180,52.734
1607281248.076,20.996,38.086,32.227,11.230,18.066
1607281248.080,12.207,30.762,22.461,5.859,5.859
1607281248.084,32.715,30.762,24.414,28.809,-18.066
1607281248.088,31.738,32.227,28.809,30.762,30.762
1607281248.092,18.066,32.227,26.855,4.395,56.641
1607281248.096,18.555,27.832,25.391,0.000,16.602
1607281248.100,31.738,28.320,27.344,23.438,-4.883
1607281248.103,40.527,29.785,28.320,32.227,-2.930
1607281248.107,29.785,27.344,30.762,15.625,9.766
1607281248.111,23.926,24.902,31.250,9.277,-57.617
1607281248.115,33.203,22.949,26.855,25.391,-25.879
1607281248.119,41.992,23.926,27.344,43.457,61.035
1607281248.123,35.156,26.367,34.668,29.785,54.199
1607281248.127,12.695,21.484,29.785,-1.953,20.508
1607281248.131,18.066,17.090,24.902,2.930,22.949
1607281248.135,31.738,16.602,28.320,25.879,113.281
1607281248.139,16.602,21.484,28.809,20.020,109.375
1607281248.142,7.324,24.902,29.297,3.906,31.250
1607281248.146,14.648,24.414,26.855,1.465,31.250
1607281248.150,26.367,26.367,30.762,21.973,67.871
1607281248.154,30.273,27.832,36.621,31.738,41.504
1607281248.158,13.672,23.438,28.320,2.441,-6.836
1607281248.162,13.184,24.414,25.879,-8.789,32.227
1607281248.166,26.367,27.344,29.785,15.625,73.242
1607281248.170,31.738,29.297,30.273,28.809,82.031
1607281248.174,22.949,31.738,29.785,6.836,12.695
1607281248.178,18.555,29.785,28.320,-1.465,-19.531
1607281248.182,31.250,31.250,29.785,13.672,17.090
1607281248.185,43.457,32.715,32.227,31.738,18.066
1607281248.189,23.438,30.762,34.180,22.461,62.500
1607281248.193,5.859,31.250,29.785,-1.465,54.199
1607281248.197,14.648,27.832,24.902,5.859,6.836
1607281248.201,35.645,31.738,32.227,36.621,-24.414
1607281248.205,30.273,34.668,36.621,31.250,29.297
1607281248.209,8.789,29.297,26.367,-1.953,65.430
1607281248.213,12.695,28.809,22.461,-1.465,-15.625
1607281248.217,26.367,28.320,25.879,19.531,-11.230
1607281248.221,25.391,28.809,28.809,28.809,2.930
1607281248.225,18.555,32.227,28.809,7.812,-50.781
1607281248.228,16.602,30.762,30.273,0.488,-22.461
1607281248.232,27.832,29.297,32.715,21.973,32.715
1607281248.236,40.527,30.273,33.203,36.133,20.508
1607281248.240,27.832,32.227,34.668,18.066,-6.836
1607281248.244,24.902,36.621,35.645,6.348,18.555
1607281248.248,28.809,32.715,29.785,13.672,28.320
1607281248.252,36.621,25.391,25.879,30.273,8.301
1607281248.256,34.668,28.809,27.344,30.762,51.758
1607281248.260,20.996,29.297,29.297,10.742,62.988
1607281248.264,25.391,30.273,31.250,10.742,78.125
1607281248.267,34.180,34.668,31.738,32.227,104.980
1607281248.271,29.297,34.668,35.645,32.715,30.762
1607281248.275,20.020,34.668,35.645,8.301,19.043
1607281248.279,20.508,35.156,32.715,2.441,44.922
1607281248.283,36.621,33.203,31.250,23.438,26.855
1607281248.287,38.086,30.762,31.250,33.691,25.879
1607281248.291,21.973,30.762,34.668,13.672,46.875
1607281248.295,26.367,33.691,39.551,10.742,35.645
1607281248.299,28.809,28.320,36.621,20.508,-1.465
1607281248.303,29.785,22.461,28.809,24.414,-13.672
1607281248.307,21.973,23.438,27.832,10.742,-15.137
1607281248.310,11.719,23.926,29.297,-3.906,-38.086
1607281248.314,20.508,24.414,28.809,6.348,-41.992
1607281248.318,31.250,26.855,26.855,29.785,-8.301
1607281248.322,28.320,30.273,28.320,24.414,1.953
1607281248.326,19.043,29.785,30.762,2.441,-39.551
1607281248.330,19.531,28.320,31.250,5.371,5.371
1607281248.334,39.551,32.715,37.109,37.598,51.758
1607281248.338,38.574,31.250,36.133,41.016,22.949
1607281248.342,12.207,23.926,24.902,8.789,-3.418
1607281248.346,10.254,21.484,24.902,5.859,26.855
1607281248.350,24.902,23.926,27.832,24.414,58.594
1607281248.353,31.738,28.809,29.785,30.762,63.965
1607281248.357,16.113,26.367,30.762,10.742,49.805
1607281248.361,13.184,27.344,28.809,0.000,-9.766
1607281248.365,24.902,30.762,27.832,11.230,31.250
1607281248.369,33.203,34.668,31.250,28.320,59.570
1607281248.373,24.902,33.691,31.738,18.555,23.438
1607281248.377,15.137,28.320,24.902,6.836,68.848
1607281248.381,22.461,30.762,24.414,14.160,70.801
1607281248.385,40.039,33.203,29.297,37.109,39.551
1607281248.389,38.086,32.715,28.809,37.109,12.695
1607281248.392,30.762,35.156,31.250,22.949,22.949
1607281248.396,35.156,32.715,32.715,23.926,20.996
1607281248.400,37.109,27.832,23.926,37.598,18.066
1607281248.404,34.180,29.785,20.996,41.016,60.547
1607281248.408,20.020,28.320,20.508,16.113,46.875
1607281248.412,17.090,25.391,18.555,4.883,50.781
1607281248.416,23.926,25.879,22.461,18.555,71.289
1607281248.420,29.297,29.785,24.414,30.273,69.824
1607281248.424,15.137,31.250,24.902,9.277,27.832
1607281248.428,10.254,28.809,25.879,-9.766,6.836
1607281248.432,23.438,29.785,25.391,9.766,12.207
1607281248.435,29.297,29.785,26.855,36.133,13.672
1607281248.439,23.438,27.344,28.320,21.973,15.625
1607281248.443,21.484,31.738,29.785,-0.488,13.184
1607281248.447,29.297,36.621,34.180,8.789,48.828
1607281248.451,31.738,30.273,29.785,27.344,36.133
1607281248.455,22.949,28.320,23.438,25.391,27.344
1607281248.459,10.254,30.762,25.879,4.883,17.090
1607281248.463,14.648,28.320,27.344,4.395,22.461
1607281248.467,30.273,26.855,27.832,27.344,20.996
1607281248.471,30.762,25.879,28.809,35.645,73.242
1607281248.475,17.578,27.832,27.832,12.695,47.852
1607281248.478,13.184,30.762,28.320,1.953,-20.996
1607281248.482,28.320,29.785,29.297,22.949,55.176
1607281248.486,33.691,26.367,26.855,32.715,91.797
1607281248.490,17.090,29.297,32.227,17.578,37.109
1607281248.494,8.789,27.344,33.691,2.441,30.273
1607281248.498,18.555,20.996,29.297,11.230,23.926
1607281248.502,31.738,26.855,32.715,36.133,28.809
1607281248.506,24.902,34.180,33.203,32.227,43.457
1607281248.510,18.066,33.203,35.156,14.648,23.438
1607281248.514,25.391,27.344,33.691,18.066,21.484
1607281248.517,39.551,28.809,33.691,41.016,18.066
1607281248.521,36.133,33.691,36.133,38.086,-0.977
1607281248.525,19.531,32.227,33.691,13.184,18.066
1607281248.529,20.996,29.297,31.738,8.789,21.484
1607281248.533,30.762,29.297,29.297,28.809,47.852
1607281248.537,34.180,29.785,29.785,37.598,37.598
1607281248.541,24.902,28.809,32.715,17.090,9.766
1607281248.545,19.043,27.832,27.832,6.836,78.613
1607281248.549,34.180,29.297,28.809,28.809,56.641
1607281248.553,46.387,34.180,36.133,48.340,27.832
1607281248.557,24.902,30.762,26.367,20.996,65.918
1607281248.560,10.254,25.879,20.996,-1.953,65.918
1607281248.564,16.602,31.738,24.902,11.719,2.441
1607281248.568,29.785,30.273,25.391,35.645,-23.438
1607281248.572,29.297,27.832,26.855,29.297,23.438
1607281248.576,17.578,31.738,28.809,9.277,86.914
1607281248.580,20.996,31.738,27.344,8.301,74.219
1607281248.584,36.133,32.227,26.367,28.320,21.484
1607281248.588,36.621,33.203,27.832,32.227,42.969
1607281248.592,24.414,33.203,28.809,16.602,-2.441
1607281248.596,23.926,29.785,26.367,14.160,-21.973
1607281248.600,41.504,30.762,30.273,36.621,14.160
1607281248.603,45.410,34.180,32.715,46.875,54.688
1607281248.607,21.484,27.344,24.414,10.254,45.898
1607281248.611,14.160,29.785,20.508,-10.254,12.695
1607281248.615,22.461,31.738,25.391,5.371,57.129
1607281248.619,28.809,30.273,27.344,25.879,84.473
1607281248.623,18.555,33.691,27.832,14.648,41.992
1607281248.627,14.648,34.180,28.809,4.395,18.066
1607281248.631,25.879,33.691,27.344,18.066,27.832
1607281248.635,33.203,32.227,28.320,37.109,65.918
1607281248.639,30.273,31.250,27.832,35.156,52.246
1607281248.642,28.320,31.738,27.344,16.602,22.949
1607281248.646,32.715,34.180,29.297,15.625,41.504
1607281248.650,41.016,32.227,32.715,40.527,37.598
1607281248.654,45.898,28.320,33.203,49.316,40.527
1607281248.658,21.973,31.250,27.344,8.789,0.000
1607281248.662,14.648,33.203,22.949,-3.418,-32.715
1607281248.666,36.133,33.203,28.320,27.344,17.578
1607281248.670,39.062,33.691,34.668,35.156,27.344
1607281248.674,22.949,29.785,26.855,13.184,76.172
1607281248.678,16.602,25.391,21.973,0.000,53.223
1607281248.682,24.414,25.391,24.414,20.508,-6.348
1607281248.685,40.527,29.297,28.320,45.410,1.953
1607281248.689,38.574,34.180,29.297,30.762,28.809
1607281248.693,27.832,36.133,30.762,12.695,35.156
1607281248.697,31.738,32.715,32.227,20.996,-25.391
1607281248.701,40.527,29.297,30.762,37.598,-3.418
1607281248.705,34.668,31.738,33.203,35.156,79.590
1607281248.709,18.066,30.273,34.180,11.719,49.316
1607281248.713,18.066,29.785,29.785,4.883,27.832
1607281248.717,39.062,36.621,33.691,33.203,29.785
1607281248.721,41.016,33.691,33.203,43.457,58.594
1607281248.725,22.461,25.391,24.902,15.137,82.520
1607281248.728,20.996,26.367,26.367,4.395,66.895
1607281248.732,28.320,27.832,28.809,21.484,29.785
1607281248.736,31.738,28.809,31.250,38.574,23.926
1607281248.740,25.391,29.785,31.250,20.996,64.453
1607281248.744,19.043,28.320,29.785,7.324,46.387
1607281248.748,24.902,27.832,30.273,21.484,-10.254
1607281248.752,35.645,29.785,31.250,39.062,27.832
1607281248.756,26.855,30.762,32.715,28.809,42.969
1607281248.760,17.578,31.738,29.785,6.836,1.465
1607281248.764,22.949,33.691,28.320,14.160,18.555
1607281248.767,33.691,30.762,31.250,38.574,14.160
1607281248.771,31.250,28.809,33.203,35.156,5.371
1607281248.775,23.926,32.715,36.621,17.090,-11.719
1607281248.779,25.879,31.738,33.691,12.207,29.297
1607281248.783,36.133,29.785,28.809,26.855,83.496
1607281248.787,41.992,33.203,31.738,38.574,47.852
1607281248.791,26.855,31.250,31.250,20.020,26.855
1607281248.795,22.461,32.227,30.273,12.207,-35.156
1607281248.799,33.203,32.715,33.203,22.949,-24.414
1607281248.803,32.715,30.762,33.203,31.738,33.691
1607281248.807,24.902,29.785,32.715,16.113,70.312
1607281248.810,19.043,27.832,32.715,1.465,30.273
1607281248.814,22.949,27.832,30.273,4.883,-31.250
1607281248.818,35.645,30.273,28.809,21.484,2.930
1607281248.822,25.879,30.762,30.762,18.066,-17.578
1607281248.826,20.508,35.645,37.598,4.395,-5.371
1607281248.830,24.414,34.180,33.691,4.395,-15.625
1607281248.834,28.320,26.367,26.855,20.996,-10.742
1607281248.838,28.320,25.391,32.715,27.832,-18.066
1607281248.842,17.090,30.762,33.203,2.930,6.836
1607281248.846,19.531,33.203,32.227,3.906,51.270
1607281248.850,41.992,31.250,34.668,33.203,6.348
1607281248.853,45.898,33.691,32.715,37.598,-1.953
1607281248.857,27.832,35.156,31.738,13.672,36.621
1607281248.861,29.785,31.250,31.738,6.348,62.500
1607281248.865,38.574,31.738,30.273,25.391,53.223
1607281248.869,42.480,37.109,28.809,38.574,40.039
1607281248.873,32.227,37.598,31.250,23.438,43.457
1607281248.877,21.973,33.203,31.250,7.812,22.461
1607281248.881,34.180,35.156,33.203,19.531,13.184
1607281248.885,47.363,35.645,33.203,41.992,57.129
1607281248.889,30.762,29.785,26.367,26.367,20.996
1607281248.892,20.020,30.762,24.902,5.371,-24.902
1607281248.896,24.414,30.762,22.461,11.719,-46.875
1607281248.900,33.203,28.320,21.973,29.785,0.000
1607281248.904,32.227,26.367,26.367,27.832,57.617
1607281248.908,19.043,26.855,28.809,9.766,46.875
1607281248.912,16.602,26.855,31.250,9.766,19.043
1607281248.916,25.879,28.320,27.832,24.902,34.668
1607281248.920,32.227,28.320,26.367,35.645,85.938
1607281248.924,16.113,27.344,28.320,16.113,74.707
1607281248.928,9.277,28.320,31.250,4.395,13.672
1607281248.932,29.297,32.715,30.762,22.461,9.766
1607281248.935,35.156,36.133,27.832,36.133,33.203
1607281248.939,21.484,30.762,29.785,17.578,33.691
1607281248.943,15.137,29.785,28.809,-2.441,21.973
1607281248.947,26.367,39.062,30.762,11.230,20.508
1607281248.951,37.109,38.086,33.691,37.109,9.766
1607281248.955,25.391,30.762,29.785,26.855,-21.973
1607281248.959,15.625,35.645,26.367,0.488,37.109
1607281248.963,16.602,37.109,26.855,-1.953,62.988
1607281248.967,33.203,32.227,31.250,23.926,36.133
1607281248.971,35.645,28.809,31.738,30.273,54.688
1607281248.975,16.602,27.344,28.809,-1.953,56.152
1607281248.978,15.625,28.809,27.832,-10.742,14.160
1607281248.982,33.203,30.762,28.320,14.160,-14.648
1607281248.986,37.109,31.250,32.227,33.691,15.625
1607281248.990,26.367,36.133,31.250,16.602,9.766
1607281248.994,22.461,34.180,25.391,-3.418,46.875
1607281248.998,27.832,31.738,27.832,12.207,107.422
1607281249.002,37.109,34.180,26.855,36.133,54.688
1607281249.006,27.832,34.180,26.855,21.973,-2.441
1607281249.010,16.602,31.738,29.785,2.441,24.902
1607281249.014,26.855,32.227,32.715,11.230,20.508
1607281249.017,38.574,30.273,33.203,29.297,-41.992
1607281249.021,34.180,27.832,33.691,31.738,41.992
1607281249.025,25.879,33.203,37.109,17.090,88.867
1607281249.029,24.902,30.762,30.762,11.230,14.648
1607281249.033,36.621,27.344,23.926,26.367,16.113
1607281249.037,42.969,29.297,25.391,34.668,9.766
1607281249.041,25.879,29.785,25.879,12.695,38.574
1607281249.045,18.555,29.785,29.297,1.465,42.480
1607281249.049,31.738,28.320,29.785,21.484,38.086
1607281249.053,37.109,29.785,28.320,41.504,37.109
1607281249.057,29.297,30.762,30.762,28.809,-1.953
1607281249.060,20.020,31.250,32.227,12.207,26.367
1607281249.064,29.785,32.227,32.227,21.484,63.965
1607281249.068,41.016,30.762,31.250,41.504,75.195
1607281249.072,23.926,27.832,32.227,30.273,39.062
1607281249.076,14.648,26.367,30.762,11.230,-15.137
1607281249.080,29.297,28.320,29.785,13.184,-21.973
1607281249.084,42.480,26.855,29.297,32.227,6.836
1607281249.088,30.273,24.902,29.297,36.621,62.988
1607281249.092,18.555,26.367,30.762,14.160,24.414
1607281249.096,25.391,28.320,28.320,11.230,-1.465
1607281249.100,42.969,33.691,35.156,41.504,62.500
1607281249.103,48.340,35.645,35.645,46.875,46.875
1607281249.107,26.367,29.297,26.855,18.066,-6.836
1607281249.111,18.066,27.344,27.832,11.230,16.113
1607281249.115,28.320,26.367,27.344,29.785,31.250
1607281249.119,39.551,28.809,28.320,42.969,55.664
1607281249.123,28.809,32.227,27.344,25.391,21.484
1607281249.127,21.973,30.762,26.855,11.719,-6.836
1607281249.131,26.367,30.762,30.273,17.090,-6.836
1607281249.135,37.109,32.227,32.227,31.250,47.852
1607281249.139,33.691,34.668,33.691,24.902,59.082
1607281249.142,20.020,32.715,31.738,5.371,11.719
1607281249.146,21.484,30.273,30.273,7.812,6.836
1607281249.150,33.203,31.250,29.785,30.273,48.340
1607281249.154,38.086,33.203,28.320,36.133,40.039
1607281249.158,25.879,32.715,28.809,10.254,3.906
1607281249.162,22.461,31.250,29.785,0.000,-7.324
1607281249.166,36.621,33.203,29.297,19.043,14.648
1607281249.170,39.551,30.762,30.273,34.180,38.086
1607281249.174,31.250,34.180,32.227,20.996,17.090
1607281249.178,25.391,35.156,28.809,9.277,-5.859
1607281249.182,35.645,31.250,32.227,26.855,18.555
1607281249.185,45.898,32.715,34.668,43.457,52.246
1607281249.189,30.273,31.250,24.902,21.973,51.758
1607281249.193,20.508,32.227,23.926,-1.465,40.527
1607281249.197,23.926,31.250,26.855,11.230,8.301
1607281249.201,36.133,30.273,28.809,40.527,62.500
1607281249.205,34.180,35.645,33.203,35.156,77.148
1607281249.209,25.391,37.109,32.227,12.207,11.230
1607281249.213,28.320,30.273,29.785,8.789,-18.066
1607281249.217,41.504,29.785,29.785,29.785,-7.324
1607281249.221,40.039,30.273,30.762,34.668,19.043
1607281249.225,22.461,26.367,30.762,12.695,13.672
1607281249.228,23.438,27.832,28.809,7.324,24.414
1607281249.232,37.109,31.250,29.785,24.902,54.199
1607281249.236,36.133,30.273,26.367,33.203,26.855
1607281249.240,28.809,32.227,30.273,18.555,-2.930
1607281249.244,25.391,37.109,36.133,10.254,18.555
1607281249.248,26.855,32.715,30.762,20.996,-37.109
1607281249.252,38.086,29.785,29.297,36.133,8.789
1607281249.256,32.715,31.250,27.344,26.855,53.711
1607281249.260,23.926,30.273,25.879,7.324,56.152
1607281249.264,29.297,30.273,29.785,11.719,66.406
1607281249.267,42.969,33.203,29.297,38.086,4.883
1607281249.271,35.645,34.180,28.320,33.203,2.441
1607281249.275,21.973,35.156,29.785,7.324,18.555
1607281249.279,31.250,36.133,28.320,8.789,-5.371
1607281249.283,42.480,34.668,28.320,31.250,49.805
